File: bartels lab/3642 MoS2 on 1012 WG/raman1_dominic/R1_c1/3642 waveguide 2881x 2304y Raman 1800 d1 t2 100x.txt
650.268	75.063
648.343	71.026
646.417	73.0932
644.491	72.6562
642.564	71.4448
640.637	72.5627
638.71	73.7477
636.782	74.5509
634.852	75.2571
632.9231	75.7646
630.992	75.9933
629.0625	75.9647
627.131	75.7622
625.198	77.56324
623.2655	78.0042
621.332	77.1773
619.3988	75.7656
617.465	75.4893
615.528	76.9971
613.594	77.06636
611.656	75.7554
609.721	74.427
607.783	74.6333
605.844	71.6433
603.9054	69.6078
601.966	70.6966
600.026	73.1868
598.0863	74.47641
596.146	74.0078
594.205	72.5034
592.261	71.8217
590.32	72.648
588.375	74.3402
586.431	74.7545
584.486	73.08979
582.54	71.8135
580.594	71.8116
578.648	72.6227
576.701	72.8781
574.754	72.7873
572.805	72.7491
570.857	72.6146
568.906	72.4125
566.958	72.2869
565.006	72.3605
563.055	72.32019
561.103	72.4272
559.15	72.831
557.197	74.1528
555.244	76.2664
553.288	77.1272
551.334	76.69632
549.377	76.1985
547.422	77.7479
545.465	81.1446
543.507	84.8905
541.549	83.9746
539.59	81.47702
537.631	84.74305
535.671	88.5343
533.711	93.2305
531.751	98.6973
529.788	111.517
527.8269	130.773
525.863	180.178
523.899	330.773
521.935	1009.39
519.9696	1507
518.004	515.077
516.038	243.5677
514.0722	170.47
512.106	127.998
510.138	107.216
508.169	95.942
506.201	88.9165
504.231	87.705
502.2598	86.6116
500.289	81.9587
498.317	78.6
496.345	77.2111
494.372	75.3873
492.399	75.0929
490.426	75.0887
488.45	74.9774
486.476	74.2773
484.499	72.7708
482.524	71.3864
480.547	70.7344
478.569	70.5185
476.59	70.6542
474.611	71.38427
472.6322	72.6654
470.653	73.642
468.672	73.68325
466.69	74.2224
464.709	75.1782
462.7254	75.7234
460.744	74.9847
458.759	71.931
456.775	75.2028
454.7894	76.1167
452.8038	76.7726
450.818	76.8479
448.831	77.5658
446.842	75.7622
444.8551	75.8298
442.867	74.7347
440.877	74.7785
438.886	75.4055
436.897	75.9499
434.906	74.56115
432.914	75.17157
430.922	77.6193
428.929	77.0712
426.935	75.9659
424.94	77.1005
422.946	78.0665
420.949	76.36351
418.954	74.05793
416.957	73.9006
414.961	76.6023
412.962	77.3645
410.964	76.0125
408.964	77.4558
406.965	82.7032
404.9646	83.3156
402.962	78.93689
400.961	75.06012
398.958	73.3093
396.956	72.5416
394.951	72.4293
392.949	72.8389
390.944	74.5813
388.938	76.2747
386.932	76.65966
384.925	76.6743
382.918	76.4013
380.909	75.6894
378.901	73.9599
376.893	71.692
374.882	70.2978
372.871	71.61174
370.861	73.0612
368.849	73.037
366.837	72.9499
364.824	72.8613
362.81	73.0692
360.796	72.9784
358.782	72.5356
356.765	72.0347
354.75	71.9648
352.734	73.0896
350.716	74.038
348.698	73.3088
346.681	71.6594
344.661	70.2561
342.641	69.9757
340.621	70.5314
338.6	71.5388
336.577	72.3096
334.555	71.385
332.5332	70.0058
330.509	75.5095
328.486	70.944
326.46	69.42
324.434	70.0974
322.41	72.1736
320.383	71.8997
318.356	71.4483
316.328	73.6778
314.3	78.6759
312.269	79.4924
310.24	76.2284
308.2103	73.3251
306.178	74.20649
304.146	77.6539
302.115	81.1732
300.081	79.7733
298.048	74.92852
296.013	72.4635
293.979	73.6079
291.943	74.815
289.908	74.6764
287.872	73.9408
285.833	72.7112
283.796	71.4622
281.7565	70.8728
279.719	71.14286
277.678	71.3571
275.637	70.7428
273.596	70.2553
271.554	70.9193
269.512	72.0581
267.469	71.5394
265.426	69.12323
263.381	66.8583
261.337	67.4662
259.292	69.5515
257.245	70.8401
255.198	70.1612
253.1517	67.1047
251.103	66.3759
249.054	66.9569
247.0052	69.4844
244.955	71.0264
242.905	70.8224
240.853	70.1434
238.801	68.9438
236.748	67.3206
234.696	65.9946
232.641	65.5889
230.588	65.8295
228.533	66.627
226.477	67.2439
224.42	67.3337
222.364	65.8534
220.306	63.7586
218.2486	61.89859
216.188	61.3921
214.13	62.0507
212.07	62.9839
210.0088	62.8317
207.947	62.4709
205.886	62.1575
203.8231	61.90448
201.7596	61.22533
199.696	60.5952
197.631	60.1264
195.5663	60.0432
193.501	60.7778
191.433	62.4339
189.367	64.0658
187.3	63.6602
185.231	62.3414
183.161	61.503
181.093	61.70311
179.022	62.1498
176.951	61.82436
174.879	62.1949
172.807	62.7323
170.735	62.7731
168.662	61.2205
166.586	59.4968
164.512	59.21611
162.4359	59.3464
160.361	59.5778
158.284	59.5725
156.206	59.4274
154.13	59.0774
152.051	58.7668
149.971	58.777
147.892	60.3405
145.812	61.47
143.729	59.5216
141.648	56.2345
139.566	56.8758
138.002	65.778