File: bartels lab/3642 MoS2 on 1012 WG/Raman_5_21_2015_Dominic/C3_R2/3642 8432x 3254y Raman 1800 T2 D1 100x.txt
650.268	54.5772
648.343	53.73856
646.417	53.3775
644.491	53.4085
642.564	53.7798
640.637	54.2902
638.71	55.6302
636.782	57.03252
634.852	58.4321
632.9231	58.431
630.992	57.9047
629.0625	57.3402
627.131	56.992
625.198	57.32473
623.2655	57.7628
621.332	58.2429
619.3988	58.4986
617.465	58.4714
615.528	58.0947
613.594	57.98798
611.656	57.9707
609.721	57.6706
607.783	56.8453
605.844	55.6266
603.9054	54.9983
601.966	56.0088
600.026	56.4173
598.0863	55.0423
596.146	53.0697
594.205	55.4721
592.261	56.0032
590.32	55.56953
588.375	54.5187
586.431	54.1275
584.486	54.3425
582.54	53.9343
580.594	56.2123
578.648	57.2187
576.701	54.4851
574.754	52.18
572.805	52.5347
570.857	53.2576
568.906	53.4088
566.958	51.6931
565.006	51.5271
563.055	55.7719
561.103	57.7259
559.15	56.7641
557.197	54.60165
555.244	57.1601
553.288	59.3918
551.334	58.9208
549.377	59.6417
547.422	60.8493
545.465	62.8287
543.507	64.928
541.549	65.8507
539.59	67.4618
537.631	72.0336
535.671	76.948
533.711	82.4893
531.751	90.5591
529.788	101.462
527.8269	124.6239
525.863	179.328
523.899	331.943
521.935	1028
519.9696	1916
518.004	592.336
516.038	253.721
514.0722	143.576
512.106	114.958
510.138	88.0627
508.169	83.0773
506.201	76.9392
504.231	73.0619
502.2598	67.7853
500.289	64.6555
498.317	63.7197
496.345	63.763
494.372	64.2466
492.399	61.4234
490.426	56.2857
488.45	61.0359
486.476	63.6712
484.499	60.72699
482.524	58.931
480.547	60.467
478.569	61.704
476.59	59.9589
474.611	57.3006
472.6322	57.2091
470.653	57.3397
468.672	56.6923
466.69	55.9863
464.709	55.2468
462.7254	54.5677
460.744	54.219
458.759	54.366
456.775	55.6385
454.7894	57.6793
452.8038	59.306
450.818	59.4058
448.831	59.5755
446.842	59.7213
444.8551	60.0226
442.867	60.2166
440.877	60.72472
438.886	61.3374
436.897	61.5631
434.906	59.5537
432.914	59.1274
430.922	60.6525
428.929	61.4471
426.935	60.5733
424.94	59.5083
422.946	60.16568
420.949	61.1043
418.954	61.6253
416.957	60.9891
414.961	59.5156
412.962	58.3017
410.964	59.1377
408.964	64.1462
406.965	69.8156
404.9646	70.4395
402.962	64.91906
400.961	59.5594
398.958	58.4463
396.956	58.68689
394.951	58.9288
392.949	58.239
390.944	58.9199
388.938	59.5546
386.932	60.6914
384.925	62.1988
382.918	62.1535
380.909	56.7656
378.901	59.3982
376.893	60.7224
374.882	58.7283
372.871	57.2159
370.861	56.2296
368.849	55.7504
366.837	55.7335
364.824	56.1513
362.81	57.172
360.796	58.3612
358.782	59.2826
356.765	58.84597
354.75	58.5862
352.734	58.3881
350.716	58.7453
348.698	58.9345
346.681	59.00523
344.661	58.9254
342.641	58.6697
340.621	58.23349
338.6	57.5625
336.577	56.8878
334.555	55.5112
332.5332	54.3013
330.509	55.6964
328.486	57.8779
326.46	59.0916
324.434	58.0174
322.41	57.1588
320.383	57.9578
318.356	59.5505
316.328	61.8639
314.3	63.984
312.269	64.0127
310.24	62.55714
308.2103	61.2801
306.178	64.3477
304.146	68.9937
302.115	71.0265
300.081	69.158
298.048	64.0478
296.013	60.5793
293.979	60.324
291.943	60.8043
289.908	60.7582
287.872	60.4865
285.833	59.2094
283.796	57.7382
281.7565	56.5385
279.719	56.93898
277.678	58.127
275.637	59.0639
273.596	58.4234
271.554	57.5122
269.512	57.1216
267.469	56.5822
265.426	55.7504
263.381	54.3355
261.337	55.801
259.292	56.7526
257.245	54.7015
255.198	53.0679
253.1517	52.0428
251.103	52.3489
249.054	53.459
247.0052	53.1141
244.955	53.1401
242.905	53.2545
240.853	54.2276
238.801	55.2107
236.748	55.4667
234.696	56.338
232.641	55.3094
230.588	54.9081
228.533	54.0486
226.477	54.1039
224.42	53.5358
222.364	52.53421
220.306	51.7277
218.2486	49.8172
216.188	48.6099
214.13	47.9239
212.07	49.213
210.0088	49.41861
207.947	47.8701
205.886	47.5903
203.8231	47.4416
201.7596	46.1897
199.696	45.2806
197.631	47.6119
195.5663	48.0094
193.501	47.1446
191.433	46.3839
189.367	46.9392
187.3	47.6865
185.231	48.3266
183.161	48.5253
181.093	48.2133
179.022	47.7892
176.951	47.3404
174.879	46.9422
172.807	46.6226
170.735	46.1539
168.662	45.20137
166.586	44.3295
164.512	43.9549
162.4359	45.7382
160.361	47.6976
158.284	48.9509
156.206	48.783
154.13	47.4568
152.051	45.6013
149.971	44.54311
147.892	45.46199
145.812	48.1594
143.729	50.2648
141.648	49.91
139.566	47.1699
138.002	46.0458