File: bartels lab/3642 MoS2 on 1012 WG/Raman_5_21_2015_Dominic/C3_R2/3642 8432x 3254y Pl 600 T2 D1 100x.txt
1.7708	1580.235
1.77132	1603.8
1.771839	1609.59
1.77236	1615.28
1.77288	1613.71
1.77341	1615.84
1.77393	1624.16
1.77445	1635.52
1.77497	1648.46
1.7755	1655.53
1.77602	1669.39
1.77655	1688.54
1.77707	1691.84
1.777596	1686.38
1.77812	1686.24
1.77865	1698.99
1.77917	1709.06
1.7797	1714.854
1.780226	1708.13
1.780753	1728.14
1.78128	1719.64
1.78181	1716.67
1.78234	1717.72
1.78286	1723.52
1.78339	1737.288
1.78392	1745.7
1.78445	1756.51
1.78498	1758.7
1.78551	1768.91
1.78604	1783.82
1.78657	1795.24
1.7871	1809.77
1.78764	1799.69
1.78817	1801.33
1.788699	1812.32
1.78923	1825.99
1.78976	1829.65
1.7903	1834.72
1.79083	1857.322
1.79136	1870.65
1.791899	1885.2
1.79243	1901.49
1.79297	1922.78
1.7935	1940.54
1.79404	1941.25
1.79458	1943.19
1.79511	1949.67
1.79565	1969.45
1.79618	1988.21
1.79672	2002.903
1.79726	2021
1.7978	2045.776
1.79834	2062.7
1.79887	2064.5
1.79941	2069.83
1.79995	2086.95
1.80049	2082.25
1.80103	2119.17
1.80157	2117.36
1.80211	2117.4
1.80265	2142.03
1.8032	2140.89
1.803738	2138.373
1.80428	2146.884
1.80482	2163.02
1.80537	2175.92
1.80591	2181.3
1.80645	2187.61
1.807	2205.58
1.80754	2216.54
1.808085	2208.34
1.80863	2188.13
1.80918	2184.385
1.80972	2205.71
1.81027	2232.17
1.81081	2248.57
1.81136	2270.64
1.81191	2290.26
1.81245	2290.116
1.813	2299.24
1.81355	2318.79
1.8141	2339.24
1.81465	2365.7
1.815197	2387.57
1.81575	2410.86
1.8163	2427.22
1.81685	2450
1.8174	2473.86
1.81795	2503.84
1.8185	2519.84
1.81905	2537.24
1.8196	2559.71
1.82016	2589.32
1.82071	2618.51
1.82126	2631.44
1.82182	2638.854
1.822369	2650.87
1.82292	2667.28
1.82348	2680.56
1.82403	2694.238
1.82459	2709.55
1.82514	2705.75
1.8257	2706.44
1.82626	2713.45
1.82681	2716.13
1.82737	2720.32
1.82793	2738.11
1.82849	2766.85
1.82904	2780.53
1.8296	2770.94
1.830161	2767.41
1.83072	2778.64
1.83128	2790.15
1.83184	2804.54
1.8324	2826.93
1.83296	2855.91
1.83352	2880.34
1.83408	2901.83
1.83465	2926.09
1.83521	2957.42
1.83577	2967.4
1.83633	2957.7
1.8369	2962.27
1.83746	3008.77
1.83802	2993.407
1.83859	3048.48
1.83915	3063.15
1.83972	3085.43
1.84028	3090.87
1.84085	3112.53
1.841417	3131.35
1.84198	3137.1
1.84255	3145.84
1.84312	3153.126
1.84369	3157.64
1.844254	3134.64
1.84482	3120.61
1.84539	3125.42
1.84596	3138.66
1.84653	3146.09
1.8471	3127.57
1.84767	3113.99
1.84824	3108.34
1.84881	3116.043
1.84938	3121.08
1.84996	3120.87
1.85053	3109.88
1.8511	3088.824
1.85167	3063.8
1.85225	3068.51
1.85282	3077.53
1.8534	3056.26
1.85397	3038.08
1.85455	3023.1
1.85512	3029.61
1.8557	3036.96
1.85627	3034.75
1.85685	3017.68
1.85743	2980.59
1.858	2973.88
1.85858	2975.17
1.85916	2968.08
1.85974	2952.57
1.86032	2932.05
1.86089	2914.66
1.86147	2891.71
1.862054	2883.68
1.86263	2878.668
1.86322	2867.16
1.8638	2846.27
1.86438	2823.15
1.86496	2810.81
1.86554	2812.686
1.86612	2811.16
1.86671	2782.47
1.86729	2750.8
1.86787	2738.04
1.86846	2734.69
1.86904	2719.46
1.86963	2703.6
1.870213	2700.45
1.8708	2693.51
1.87138	2657.71
1.87197	2637.07
1.87256	2631.6
1.87315	2622.8
1.87373	2603.939
1.87432	2574.6
1.87491	2553.53
1.8755	2518.38
1.87609	2472.65
1.87668	2443.65
1.87727	2436.3
1.87786	2420.56
1.87845	2390.95
1.87904	2355.95
1.87963	2319.29
1.88022	2274.74
1.88082	2238.82
1.88141	2209.115
1.882	2194.92
1.8826	2188.27
1.88319	2167.09
1.88378	2130.3
1.88438	2078.01
1.88497	2053.14
1.88557	2042.78
1.88616	2021.09
1.88676	1986.04
1.88736	1955.57
1.887955	1943.77
1.88855	1928.95
1.88915	1909.51
1.88975	1890.37
1.89035	1875.11
1.89095	1861.74
1.89155	1845.5
1.89215	1822.56
1.89275	1808.03
1.89335	1788.19
1.89395	1774.47
1.89455	1760.09
1.895152	1744.89
1.89575	1730.35
1.89636	1710.51
1.89696	1691.69
1.89756	1663.35
1.89817	1635.587
1.89877	1614.8
1.899377	1604.99
1.89998	1600.6
1.90059	1588.94
1.90119	1568.43
1.9018	1545.06
1.90241	1531.921
1.90301	1528.43
1.903622	1509.47
1.90423	1493.73
1.90484	1476.66
1.90545	1465.72
1.90606	1455.81
1.90667	1443.75
1.90728	1427.78
1.90789	1401.36
1.9085	1383.5
1.90911	1373.42
1.90972	1367.24
1.91033	1355.729
1.910946	1335.33
1.911559	1315.56
1.91217	1298.69
1.91279	1283.99
1.9134	1275.32
1.91402	1268.07
1.91463	1249.55
1.91525	1230.2
1.91571	1203.19