File: bartels lab/3642 MoS2 on 1012 WG/Raman_5_21_2015_Dominic/C3_R2/3642 8401x 3303y PL 600 T2 D1 100x.txt
1.7708	2169.15
1.77132	2212.42
1.771839	2233.48
1.77236	2247.42
1.77288	2271.68
1.77341	2293.5
1.77393	2330.24
1.77445	2337.76
1.77497	2363.71
1.7755	2398.82
1.77602	2428.269
1.77655	2442.11
1.77707	2467.23
1.777596	2491.36
1.77812	2509.55
1.77865	2518.77
1.77917	2532.15
1.7797	2563.41
1.780226	2605.522
1.780753	2633.66
1.78128	2646.86
1.78181	2648.73
1.78234	2671.23
1.78286	2709.79
1.78339	2743.66
1.78392	2764.62
1.78445	2770.86
1.78498	2788.05
1.78551	2831.23
1.78604	2885.67
1.78657	2924.48
1.7871	2940.6
1.78764	2967.46
1.78817	3002.76
1.788699	3034.04
1.78923	3065.15
1.78976	3100.92
1.7903	3143.97
1.79083	3174.31
1.79136	3225.21
1.791899	3267.43
1.79243	3297.12
1.79297	3330.37
1.7935	3380.47
1.79404	3430.76
1.79458	3469.56
1.79511	3520.9
1.79565	3570.45
1.79618	3618.92
1.79672	3646.62
1.79726	3704.92
1.7978	3786.34
1.79834	3821.97
1.79887	3859.26
1.79941	3890.33
1.79995	3921
1.80049	3966.06
1.80103	4019.41
1.80157	4070.95
1.80211	4118.97
1.80265	4158.272
1.8032	4186.65
1.803738	4210.04
1.80428	4246.416
1.80482	4278.42
1.80537	4307.95
1.80591	4345.72
1.80645	4394.61
1.807	4423.14
1.80754	4447
1.808085	4495.8
1.80863	4547.54
1.80918	4569.49
1.80972	4621.03
1.81027	4673.33
1.81081	4714.064
1.81136	4745.98
1.81191	4791.81
1.81245	4858.38
1.813	4921.45
1.81355	4994.35
1.8141	5060.61
1.81465	5129.66
1.815197	5206.39
1.81575	5287.21
1.8163	5363.6
1.81685	5450.65
1.8174	5544.85
1.81795	5624.2
1.8185	5685.61
1.81905	5754.93
1.8196	5841.21
1.82016	5941.83
1.82071	5978.96
1.82126	6000.13
1.82182	6090.68
1.822369	6185.78
1.82292	6265.42
1.82348	6296.15
1.82403	6301.46
1.82459	6334.02
1.82514	6406.43
1.8257	6469.02
1.82626	6505.04
1.82681	6556.11
1.82737	6603.98
1.82793	6616.8
1.82849	6651.18
1.82904	6699.64
1.8296	6739.83
1.830161	6762.1
1.83072	6795.1
1.83128	6844.13
1.83184	6903.35
1.8324	6957.16
1.83296	7030.53
1.83352	7090.833
1.83408	7152.14
1.83465	7216.59
1.83521	7268.61
1.83577	7318.55
1.83633	7390.32
1.8369	7472.165
1.83746	7539.56
1.83802	7599.75
1.83859	7652.49
1.83915	7697.51
1.83972	7737.44
1.84028	7785.25
1.84085	7849.9
1.841417	7903.54
1.84198	7952.47
1.84255	7983.36
1.84312	7969.24
1.84369	7944.71
1.844254	7944.61
1.84482	7977.38
1.84539	8004.42
1.84596	7954.01
1.84653	7932.7
1.8471	7927.3
1.84767	7898.47
1.84824	7895.46
1.84881	7877.27
1.84938	7867.83
1.84996	7847.24
1.85053	7814.13
1.8511	7770.8
1.85167	7741.11
1.85225	7702.76
1.85282	7667.89
1.8534	7643.999
1.85397	7640.74
1.85455	7639.15
1.85512	7603.93
1.8557	7537.437
1.85627	7459.54
1.85685	7413.07
1.85743	7364.31
1.858	7319.22
1.85858	7268.71
1.85916	7211.47
1.85974	7153.25
1.86032	7085.17
1.86089	7003.09
1.86147	6916.88
1.862054	6843
1.86263	6791.93
1.86322	6742.02
1.8638	6677.81
1.86438	6592.3
1.86496	6503.14
1.86554	6421.11
1.86612	6369.8
1.86671	6327.4
1.86729	6280.167
1.86787	6219.36
1.86846	6141.82
1.86904	6059.39
1.86963	5976.54
1.870213	5896.8
1.8708	5831.16
1.87138	5759.27
1.87197	5662.32
1.87256	5579.83
1.87315	5518.03
1.87373	5448.11
1.87432	5355.2
1.87491	5251.57
1.8755	5156.22
1.87609	5060.83
1.87668	4973.93
1.87727	4875.57
1.87786	4781.04
1.87845	4690.57
1.87904	4600.55
1.87963	4490.02
1.88022	4380.07
1.88082	4286.42
1.88141	4209.48
1.882	4133.44
1.8826	4051.16
1.88319	3953.5
1.88378	3827.4
1.88438	3758.21
1.88497	3684.94
1.88557	3614.31
1.88616	3541.5
1.88676	3462.67
1.88736	3386.48
1.887955	3320.99
1.88855	3254.26
1.88915	3196.32
1.88975	3140.77
1.89035	3092.52
1.89095	3025.61
1.89155	2945.45
1.89215	2919.36
1.89275	2885.83
1.89335	2831.46
1.89395	2774.585
1.89455	2706.26
1.895152	2658.81
1.89575	2613.61
1.89636	2552.554
1.89696	2509.11
1.89756	2457.58
1.89817	2401.85
1.89877	2349.84
1.899377	2316.615
1.89998	2284.34
1.90059	2232.42
1.90119	2175.84
1.9018	2129.47
1.90241	2091.51
1.90301	2051.96
1.903622	2014.23
1.90423	1980.59
1.90484	1944.74
1.90545	1903.29
1.90606	1868.85
1.90667	1842.44
1.90728	1807.29
1.90789	1779.709
1.9085	1742.71
1.90911	1696.66
1.90972	1657.9
1.91033	1631.9
1.910946	1613.51
1.911559	1590.95
1.91217	1558.21
1.91279	1515.76
1.9134	1478.74
1.91402	1454.16
1.91463	1440.11
1.91525	1429.579
1.91571	1403.22