File: bartels lab/3642 MoS2 on 1012 WG/Raman_5_21_2015_Dominic/C3_R2/3642 8401x 3291y PL 600 T2 D1 100x.txt
1.7708	2739.03
1.77132	2750.55
1.771839	2805.28
1.77236	2848.01
1.77288	2880.375
1.77341	2913.29
1.77393	2934.73
1.77445	2960.593
1.77497	2990.511
1.7755	3023.86
1.77602	3052.76
1.77655	3081.66
1.77707	3109.87
1.777596	3135.76
1.77812	3159.88
1.77865	3202.94
1.77917	3238.48
1.7797	3261.12
1.780226	3277.78
1.780753	3306.52
1.78128	3356.05
1.78181	3398.4
1.78234	3429.468
1.78286	3446.605
1.78339	3468.54
1.78392	3495.48
1.78445	3527.72
1.78498	3567.1
1.78551	3614.01
1.78604	3651.67
1.78657	3689.06
1.7871	3720.96
1.78764	3747.501
1.78817	3789.51
1.788699	3836.7
1.78923	3897.18
1.78976	3966.03
1.7903	4024.66
1.79083	4066.31
1.79136	4106.59
1.791899	4164.32
1.79243	4220.32
1.79297	4267.62
1.7935	4309.56
1.79404	4376.01
1.79458	4442.74
1.79511	4506.06
1.79565	4578.28
1.79618	4648.88
1.79672	4718.48
1.79726	4768.67
1.7978	4807.65
1.79834	4875.54
1.79887	4958.856
1.79941	5044.84
1.79995	5088.61
1.80049	5158.36
1.80103	5231.51
1.80157	5266.88
1.80211	5313.79
1.80265	5374.96
1.8032	5439.09
1.803738	5495.58
1.80428	5552.08
1.80482	5609.07
1.80537	5616.44
1.80591	5651.71
1.80645	5710.21
1.807	5773.418
1.80754	5820.96
1.808085	5857.2
1.80863	5930.1
1.80918	6017.04
1.80972	6093.47
1.81027	6158.31
1.81081	6204.8
1.81136	6274.45
1.81191	6376.53
1.81245	6461.876
1.813	6550.59
1.81355	6634.53
1.8141	6715.37
1.81465	6809.24
1.815197	6922.95
1.81575	7038.375
1.8163	7164.69
1.81685	7295.001
1.8174	7408.58
1.81795	7509.835
1.8185	7623.18
1.81905	7738.61
1.8196	7831.57
1.82016	8006.86
1.82071	8139.99
1.82126	8222.09
1.82182	8278.498
1.822369	8367.25
1.82292	8487.41
1.82348	8597.13
1.82403	8683.39
1.82459	8756.14
1.82514	8827.04
1.8257	8918.21
1.82626	8969.873
1.82681	8990.33
1.82737	9060.08
1.82793	9170.76
1.82849	9251.31
1.82904	9309.374
1.8296	9371.332
1.830161	9469.78
1.83072	9515.38
1.83128	9583.13
1.83184	9682.79
1.8324	9794.68
1.83296	9916.96
1.83352	10030.112
1.83408	10134.178
1.83465	10241.402
1.83521	10358.01
1.83577	10482.121
1.83633	10602.567
1.8369	10711.327
1.83746	10818.36
1.83802	10906.238
1.83859	10988.692
1.83915	11100.262
1.83972	11213.53
1.84028	11285.152
1.84085	11352.398
1.841417	11436.688
1.84198	11524.198
1.84255	11595.479
1.84312	11644.2
1.84369	11666.663
1.844254	11694.664
1.84482	11728.743
1.84539	11750.989
1.84596	11768.391
1.84653	11808.286
1.8471	11796.801
1.84767	11760.76
1.84824	11702.715
1.84881	11666.387
1.84938	11664.156
1.84996	11691.334
1.85053	11693.375
1.8511	11664.029
1.85167	11612.54
1.85225	11572.743
1.85282	11549.661
1.8534	11533.618
1.85397	11507.396
1.85455	11452.117
1.85512	11413.373
1.8557	11370.648
1.85627	11307.873
1.85685	11237.894
1.85743	11181.327
1.858	11136.143
1.85858	11070.347
1.85916	10975.186
1.85974	10882.667
1.86032	10785.739
1.86089	10691.775
1.86147	10595.729
1.862054	10488.924
1.86263	10397.551
1.86322	10299.987
1.8638	10195.902
1.86438	10087.675
1.86496	10015.173
1.86554	9921.25
1.86612	9814.68
1.86671	9699.27
1.86729	9589.2
1.86787	9495.5
1.86846	9397.86
1.86904	9287.31
1.86963	9170.99
1.870213	9044.83
1.8708	8945.67
1.87138	8843.51
1.87197	8753.98
1.87256	8640.81
1.87315	8487.415
1.87373	8336.08
1.87432	8207.62
1.87491	8090.42
1.8755	7960.89
1.87609	7787.21
1.87668	7618.83
1.87727	7492.79
1.87786	7357.98
1.87845	7219.1
1.87904	7052.27
1.87963	6886.43
1.88022	6748.8
1.88082	6589.87
1.88141	6417.27
1.882	6254.39
1.8826	6122.89
1.88319	6007.23
1.88378	5890.25
1.88438	5749.03
1.88497	5594.52
1.88557	5445.12
1.88616	5302.5
1.88676	5186.43
1.88736	5094.68
1.887955	5002.64
1.88855	4909.85
1.88915	4813.02
1.88975	4702.54
1.89035	4581.45
1.89095	4479.07
1.89155	4390.92
1.89215	4311.43
1.89275	4215.78
1.89335	4130.08
1.89395	4056.43
1.89455	3989.54
1.895152	3914.99
1.89575	3832.53
1.89636	3743.51
1.89696	3656.6
1.89756	3578.78
1.89817	3493.75
1.89877	3415.52
1.899377	3337.11
1.89998	3273.09
1.90059	3197.24
1.90119	3128.67
1.9018	3070.45
1.90241	3022.24
1.90301	2964.03
1.903622	2889.49
1.90423	2811.45
1.90484	2748.76
1.90545	2691.41
1.90606	2627.9
1.90667	2558.72
1.90728	2503.72
1.90789	2460.01
1.9085	2419.66
1.90911	2361.55
1.90972	2289.73
1.91033	2225.57
1.910946	2190.67
1.911559	2149.37
1.91217	2106.62
1.91279	2049.25
1.9134	2000.69
1.91402	1958.29
1.91463	1921.64
1.91525	1897.92
1.91571	1877.26