File: bartels lab/3642 MoS2 on 1012 WG/Raman_5_21_2015_Dominic/C3_R2/3642 8432x 3294y PL 600 T2 D1 100x.txt
1.7708	2940.4
1.77132	2971.46
1.771839	3007.62
1.77236	3053.08
1.77288	3097.16
1.77341	3131.52
1.77393	3153.675
1.77445	3162.272
1.77497	3185.39
1.7755	3205.97
1.77602	3248.43
1.77655	3303.59
1.77707	3335.24
1.777596	3353.365
1.77812	3371.375
1.77865	3396.67
1.77917	3436.05
1.7797	3469.229
1.780226	3498.69
1.780753	3533.68
1.78128	3566
1.78181	3582.94
1.78234	3611.81
1.78286	3659
1.78339	3707.64
1.78392	3718.68
1.78445	3731.15
1.78498	3778.55
1.78551	3826.41
1.78604	3861.38
1.78657	3897.97
1.7871	3943.25
1.78764	3991.81
1.78817	4032.55
1.788699	4067.26
1.78923	4111.6
1.78976	4160.13
1.7903	4204.48
1.79083	4252.17
1.79136	4298.875
1.791899	4362.15
1.79243	4432.32
1.79297	4496.74
1.7935	4539.76
1.79404	4581.88
1.79458	4644.97
1.79511	4719.87
1.79565	4805.23
1.79618	4877.33
1.79672	4916.6
1.79726	4970.88
1.7978	5066.26
1.79834	5126.88
1.79887	5202.46
1.79941	5270.68
1.79995	5320.05
1.80049	5382.439
1.80103	5453.36
1.80157	5528.45
1.80211	5581.57
1.80265	5622.52
1.8032	5665.603
1.803738	5706.36
1.80428	5751.584
1.80482	5809.77
1.80537	5873.95
1.80591	5923.46
1.80645	5963.33
1.807	6012.22
1.80754	6062.72
1.808085	6114.54
1.80863	6141.88
1.80918	6214.9
1.80972	6295.19
1.81027	6369.84
1.81081	6429.64
1.81136	6478.22
1.81191	6531.47
1.81245	6623.87
1.813	6742.36
1.81355	6857.89
1.8141	6950.05
1.81465	7011.42
1.815197	7112.35
1.81575	7247.26
1.8163	7374.23
1.81685	7474.63
1.8174	7586.418
1.81795	7708.41
1.8185	7841.47
1.81905	7960.53
1.8196	8089.82
1.82016	8199.73
1.82071	8280.36
1.82126	8342.61
1.82182	8423.33
1.822369	8542.51
1.82292	8661.11
1.82348	8749.02
1.82403	8817.01
1.82459	8877
1.82514	8949.85
1.8257	9014.93
1.82626	9080.23
1.82681	9136.14
1.82737	9180.62
1.82793	9238.5
1.82849	9309.16
1.82904	9368.57
1.8296	9434.459
1.830161	9499.4
1.83072	9557.76
1.83128	9624.34
1.83184	9704.87
1.8324	9782.19
1.83296	9868.916
1.83352	9966.98
1.83408	10080.451
1.83465	10181.118
1.83521	10263.783
1.83577	10371.292
1.83633	10489.41
1.8369	10574.774
1.83746	10643.032
1.83802	10743.011
1.83859	10857.297
1.83915	10949.419
1.83972	11020.407
1.84028	11090.604
1.84085	11157.804
1.841417	11237.604
1.84198	11282.504
1.84255	11327.929
1.84312	11340.929
1.84369	11386.443
1.844254	11424.783
1.84482	11430.123
1.84539	11411.052
1.84596	11361.312
1.84653	11347.465
1.8471	11362.796
1.84767	11318.626
1.84824	11319.416
1.84881	11334.56
1.84938	11339.186
1.84996	11308.78
1.85053	11246.62
1.8511	11198.863
1.85167	11152.622
1.85225	11138.822
1.85282	11123.591
1.8534	11108.27
1.85397	11065.605
1.85455	11015.077
1.85512	10968.584
1.8557	10911.914
1.85627	10826.567
1.85685	10756.766
1.85743	10733.819
1.858	10694.461
1.85858	10612.354
1.85916	10520.392
1.85974	10458.582
1.86032	10380.419
1.86089	10276.291
1.86147	10157.878
1.862054	10054.046
1.86263	9985.58
1.86322	9925.45
1.8638	9847.91
1.86438	9739.59
1.86496	9606.81
1.86554	9479.48
1.86612	9391.93
1.86671	9314.97
1.86729	9234.43
1.86787	9111.78
1.86846	9009.667
1.86904	8946.48
1.86963	8890.03
1.870213	8805
1.8708	8645.95
1.87138	8507.84
1.87197	8401.41
1.87256	8312.86
1.87315	8222.42
1.87373	8127.42
1.87432	7994.61
1.87491	7836.17
1.8755	7659.35
1.87609	7534.51
1.87668	7416.38
1.87727	7277.15
1.87786	7140.09
1.87845	6999
1.87904	6847.76
1.87963	6686.19
1.88022	6543.43
1.88082	6423.91
1.88141	6283.98
1.882	6143.93
1.8826	6039.85
1.88319	5898.481
1.88378	5748.22
1.88438	5601.24
1.88497	5480.53
1.88557	5393.61
1.88616	5296.57
1.88676	5173.66
1.88736	5051.03
1.887955	4949.04
1.88855	4858.44
1.88915	4751.89
1.88975	4642.02
1.89035	4538.38
1.89095	4460.75
1.89155	4386.02
1.89215	4299.39
1.89275	4210.13
1.89335	4116.6
1.89395	4032.71
1.89455	3956.06
1.895152	3895.76
1.89575	3823.26
1.89636	3727.73
1.89696	3641.49
1.89756	3555.68
1.89817	3503.66
1.89877	3448.92
1.899377	3366.52
1.89998	3286.24
1.90059	3221.67
1.90119	3163.43
1.9018	3108.92
1.90241	3040.76
1.90301	2969.48
1.903622	2894.83
1.90423	2832.92
1.90484	2785.12
1.90545	2725.21
1.90606	2663.93
1.90667	2609.47
1.90728	2560.15
1.90789	2504.84
1.9085	2440.02
1.90911	2383.22
1.90972	2338.15
1.91033	2294.84
1.910946	2248.36
1.911559	2193.73
1.91217	2161.14
1.91279	2123.47
1.9134	2075.47
1.91402	2022.12
1.91463	1971.1
1.91525	1942.24
1.91571	1915.57