File: bartels lab/3642 MoS2 on 1012 WG/Raman_5_21_2015_Dominic/C3_R2/3642 8432x 3303y Raman 1800 T2 D1 100x.txt
650.268	66.0774
648.343	66.5254
646.417	65.042
644.491	63.7467
642.564	63.109
640.637	63.5526
638.71	64.3903
636.782	65.3286
634.852	65.9729
632.9231	65.7962
630.992	65.4061
629.0625	64.812
627.131	64.85672
625.198	65.1344
623.2655	65.4738
621.332	65.7539
619.3988	65.938
617.465	66.0165
615.528	65.9227
613.594	65.6226
611.656	65.3214
609.721	65.0051
607.783	64.6301
605.844	63.96637
603.9054	62.9236
601.966	61.8999
600.026	66.1888
598.0863	64.6195
596.146	65.1014
594.205	64.8464
592.261	63.3911
590.32	63.65258
588.375	64.221
586.431	62.5996
584.486	61.76643
582.54	62.5896
580.594	63.7616
578.648	64.1142
576.701	63.5808
574.754	61.9508
572.805	60.3609
570.857	61.3772
568.906	64.0245
566.958	63.8128
565.006	62.704
563.055	63.2565
561.103	66.0929
559.15	65.8423
557.197	63.1431
555.244	60.4424
553.288	62.3477
551.334	67.39489
549.377	68.1617
547.422	64.9627
545.465	67.3245
543.507	70.84111
541.549	72.9764
539.59	73.8096
537.631	76.2831
535.671	80.67083
533.711	86.9228
531.751	95.2327
529.788	105.777
527.8269	128.912
525.863	185.533
523.899	349.085
521.935	1030
519.9696	1883
518.004	566.601
516.038	260.156
514.0722	148.016
512.106	113.6
510.138	96.617
508.169	85.5408
506.201	79.6952
504.231	75.9886
502.2598	73.7955
500.289	73.2861
498.317	72.4374
496.345	69.0468
494.372	66.7498
492.399	66.8567
490.426	65.8564
488.45	63.4192
486.476	61.897
484.499	62.255
482.524	64.0703
480.547	65.105
478.569	65.1983
476.59	65.2527
474.611	65.2779
472.6322	65.2941
470.653	65.33416
468.672	65.5301
466.69	65.0642
464.709	64.536
462.7254	64.0881
460.744	64.1034
458.759	64.7758
456.775	65.3824
454.7894	66.0046
452.8038	66.5225
450.818	67.0573
448.831	67.5697
446.842	67.9886
444.8551	68.281
442.867	68.3224
440.877	68.0744
438.886	67.5759
436.897	66.9255
434.906	66.2928
432.914	65.8353
430.922	67.5741
428.929	70.4125
426.935	66.4718
424.94	62.7023
422.946	64.9814
420.949	67.8945
418.954	68.1638
416.957	67.6802
414.961	69.5024
412.962	69.668
410.964	70.0267
408.964	71.8268
406.965	78.4336
404.9646	94.7134
402.962	102.038
400.961	78.818
398.958	68.2982
396.956	64.0585
394.951	65.1126
392.949	66.496
390.944	66.8907
388.938	66.439
386.932	69.3116
384.925	75.62812
382.918	77.3921
380.909	72.0317
378.901	66.7069
376.893	65.7335
374.882	66.5703
372.871	65.29351
370.861	63.6928
368.849	63.9425
366.837	65.4083
364.824	63.8607
362.81	60.5681
360.796	60.4679
358.782	62.4218
356.765	62.8014
354.75	62.4699
352.734	62.0073
350.716	61.5913
348.698	61.4928
346.681	62.5662
344.661	64.9078
342.641	65.2673
340.621	62.7107
338.6	62.3049
336.577	63.3747
334.555	64.5929
332.5332	65.2077
330.509	65.63987
328.486	65.5412
326.46	65.32618
324.434	65.0797
322.41	64.957
320.383	65.1162
318.356	65.8859
316.328	66.9905
314.3	68.3485
312.269	67.3217
310.24	65.1596
308.2103	68.4426
306.178	68.8322
304.146	70.4259
302.115	72.0665
300.081	72.03199
298.048	70.7706
296.013	69.1322
293.979	66.79689
291.943	63.6211
289.908	62.2363
287.872	62.29649
285.833	63.6324
283.796	65.4722
281.7565	65.78
279.719	64.97113
277.678	63.7886
275.637	62.6332
273.596	61.56567
271.554	60.6439
269.512	59.9001
267.469	59.6342
265.426	59.8597
263.381	60.0851
261.337	59.2682
259.292	58.1957
257.245	57.9087
255.198	58.5176
253.1517	59.165
251.103	59.7058
249.054	59.8369
247.0052	59.936
244.955	59.9232
242.905	59.7137
240.853	59.2738
238.801	58.6352
236.748	57.9368
234.696	60.2555
232.641	60.0695
230.588	59.13335
228.533	58.9941
226.477	58.7113
224.42	57.5616
222.364	55.869
220.306	54.2127
218.2486	52.9875
216.188	53.38522
214.13	54.3803
212.07	55.209
210.0088	53.8325
207.947	52.47242
205.886	52.4386
203.8231	53.347
201.7596	53.7589
199.696	53.9386
197.631	53.7248
195.5663	52.5082
193.501	50.7568
191.433	51.27562
189.367	52.6419
187.3	53.5825
185.231	54.20874
183.161	54.30114
181.093	53.812
179.022	52.123
176.951	49.863
174.879	48.6235
172.807	48.6812
170.735	49.3782
168.662	50.535
166.586	52.4955
164.512	54.419
162.4359	53.8241
160.361	51.76104
158.284	49.7364
156.206	52.1962
154.13	53.0278
152.051	50.2992
149.971	48.4907
147.892	49.407
145.812	49.92136
143.729	50.29855
141.648	50.64275
139.566	51.0643
138.002	51.3987