File: bartels lab/3642 MoS2 on 1012 WG/Raman_5_21_2015_Dominic/C3_R2/3642 8401x 3291y Raman 1800 T2 D1 100x.txt
650.268	67.81871
648.343	70.6725
646.417	69.7463
644.491	68.92395
642.564	68.815
640.637	70.4048
638.71	72.1916
636.782	73.3746
634.852	73.2928
632.9231	72.4584
630.992	71.4275
629.0625	70.6334
627.131	70.4573
625.198	70.563
623.2655	70.7741
621.332	70.8674
619.3988	69.799
617.465	68.9904
615.528	70.7192
613.594	72.2721
611.656	71.7348
609.721	70.1979
607.783	68.6287
605.844	68.1434
603.9054	68.809
601.966	70.0015
600.026	70.8005
598.0863	69.6347
596.146	68.3153
594.205	68.1408
592.261	69.728
590.32	71.2068
588.375	70.8257
586.431	68.7126
584.486	66.4849
582.54	66.6301
580.594	67.35495
578.648	68.1024
576.701	67.9328
574.754	67.3685
572.805	66.523
570.857	65.9482
568.906	66.4194
566.958	68.7743
565.006	70.7504
563.055	69.4003
561.103	67.1122
559.15	65.7331
557.197	66.08197
555.244	68.1857
553.288	71.3186
551.334	69.6922
549.377	70.4082
547.422	70.7865
545.465	70.0965
543.507	73.4247
541.549	76.2872
539.59	75.7535
537.631	77.74855
535.671	80.7752
533.711	87.1901
531.751	93.0688
529.788	103.948
527.8269	120.804
525.863	168.206
523.899	331.0643
521.935	978.164
519.9696	1283
518.004	420
516.038	193.649
514.0722	141.5206
512.106	112.389
510.138	95.4334
508.169	84.864
506.201	80.0888
504.231	77.0059
502.2598	75.1624
500.289	75.0366
498.317	74.6764
496.345	71.1507
494.372	70.1507
492.399	72.7156
490.426	70.99
488.45	69.4123
486.476	66.9732
484.499	65.399
482.524	65.0195
480.547	66.5848
478.569	68.0023
476.59	67.8099
474.611	67.7088
472.6322	68.0223
470.653	68.3884
468.672	67.9573
466.69	69.4638
464.709	70.6891
462.7254	73.0861
460.744	73.8764
458.759	74.5448
456.775	74.84066
454.7894	75.683
452.8038	74.6119
450.818	74.0944
448.831	73.8245
446.842	71.0375
444.8551	69.9559
442.867	69.5625
440.877	70.6763
438.886	70.213
436.897	69.4767
434.906	70.2788
432.914	71.0009
430.922	71.0932
428.929	70.5402
426.935	69.6531
424.94	68.06044
422.946	66.1407
420.949	66.4311
418.954	69.6581
416.957	71.9189
414.961	72.58667
412.962	72.32
410.964	74.8496
408.964	83.5278
406.965	98.09729
404.9646	119.278
402.962	114.5452
400.961	81.6761
398.958	72.6821
396.956	70.438
394.951	70.37886
392.949	69.6568
390.944	70.726
388.938	70.0666
386.932	73.3444
384.925	97.8348
382.918	95.8159
380.909	78.4876
378.901	69.2166
376.893	71.313
374.882	73.6699
372.871	70.1817
370.861	66.9546
368.849	66.9925
366.837	69.1948
364.824	70.2264
362.81	68.78244
360.796	66.6851
358.782	66.3621
356.765	66.5257
354.75	66.7317
352.734	66.7559
350.716	66.5153
348.698	66.2486
346.681	65.9831
344.661	65.7583
342.641	65.5525
340.621	65.3353
338.6	65.1091
336.577	64.89
334.555	64.7634
332.5332	65.3846
330.509	67.6199
328.486	69.6253
326.46	69.367
324.434	68.1595
322.41	66.3471
320.383	64.8168
318.356	63.7697
316.328	64.1809
314.3	65.9972
312.269	67.4402
310.24	68.4512
308.2103	69.8423
306.178	71.8358
304.146	72.6462
302.115	70.6944
300.081	68.7421
298.048	67.6523
296.013	67.8359
293.979	68.2297
291.943	68.0806
289.908	66.4046
287.872	64.61866
285.833	63.3906
283.796	64.1078
281.7565	65.0351
279.719	64.6505
277.678	62.3572
275.637	62.3141
273.596	64.6536
271.554	65.4884
269.512	65.1236
267.469	63.5439
265.426	61.4756
263.381	60.5878
261.337	60.5099
259.292	60.7308
257.245	60.6628
255.198	60.483
253.1517	60.4131
251.103	60.5385
249.054	60.9195
247.0052	61.6982
244.955	62.5269
242.905	61.6563
240.853	59.8766
238.801	59.76479
236.748	62.2254
234.696	62.7529
232.641	60.47229
230.588	58.8097
228.533	59.95034
226.477	65.2042
224.42	64.1683
222.364	58.479
220.306	59.7525
218.2486	60.2144
216.188	60.1493
214.13	58.9753
212.07	57.537
210.0088	56.464
207.947	56.8623
205.886	57.3004
203.8231	56.6273
201.7596	55.6462
199.696	55.1723
197.631	55.4422
195.5663	55.8578
193.501	56.2012
191.433	56.3976
189.367	56.3301
187.3	56.1377
185.231	55.8173
183.161	55.4558
181.093	55.2621
179.022	55.5568
176.951	55.9463
174.879	56.1176
172.807	55.14912
170.735	54.1639
168.662	53.88
166.586	54.2476
164.512	54.695
162.4359	55.12899
160.361	55.4609
158.284	55.3795
156.206	55.044
154.13	54.5123
152.051	53.98415
149.971	53.8459
147.892	54.227
145.812	55.7034
143.729	57.0544
141.648	56.4284
139.566	53.7295
138.002	53.7279