File: bartels lab/3642 MoS2 on 1012 WG/Raman_5_21_2015_Dominic/C3_R2/3642 8432x 3294y Raman 1800 T2 D1 100x.txt
650.268	75.47908
648.343	74.3144
646.417	74.1171
644.491	75.7287
642.564	77.5057
640.637	78.1648
638.71	77.1764
636.782	76.5619
634.852	77.8819
632.9231	80.9522
630.992	80.3603
629.0625	77.8935
627.131	78.4887
625.198	82.41777
623.2655	84.3088
621.332	83.1128
619.3988	81.1128
617.465	80.506
615.528	79.1085
613.594	76.8895
611.656	75.6059
609.721	76.4719
607.783	76.74498
605.844	72.9374
603.9054	70.8356
601.966	76.7175
600.026	80.7305
598.0863	78.6869
596.146	76.5818
594.205	74.8324
592.261	73.3967
590.32	72.4683
588.375	72.3249
586.431	73.2826
584.486	75.5148
582.54	76.8621
580.594	75.3765
578.648	73.595
576.701	73.2104
574.754	74.5509
572.805	76.6145
570.857	77.393
568.906	77.18586
566.958	76.7295
565.006	75.8868
563.055	75.1317
561.103	74.76226
559.15	75.90744
557.197	77.0008
555.244	77.4493
553.288	77.2978
551.334	76.9865
549.377	76.6901
547.422	77.2355
545.465	78.3983
543.507	78.7407
541.549	79.2837
539.59	80.8611
537.631	82.9957
535.671	86.09465
533.711	91.61013
531.751	101.451
529.788	111.5
527.8269	129.296
525.863	173.175
523.899	321.193
521.935	997.036
519.9696	1189
518.004	408.345
516.038	202.4268
514.0722	137.878
512.106	111.733
510.138	98.0027
508.169	90.946
506.201	85.38031
504.231	80.6494
502.2598	76.1475
500.289	73.33503
498.317	74.36618
496.345	76.66877
494.372	76.5991
492.399	75.2034
490.426	74.549
488.45	75.28392
486.476	75.5435
484.499	74.1391
482.524	72.549
480.547	70.659
478.569	71.5851
476.59	73.4778
474.611	73.4367
472.6322	72.82769
470.653	72.8272
468.672	74.4163
466.69	75.8292
464.709	76.1624
462.7254	76.243
460.744	75.6074
458.759	75.2032
456.775	78.0015
454.7894	80.49839
452.8038	82.7459
450.818	80.6694
448.831	80.1841
446.842	80.6242
444.8551	80.5378
442.867	79.5124
440.877	78.6155
438.886	79.0406
436.897	79.1488
434.906	78.1512
432.914	77.2181
430.922	76.3056
428.929	75.87664
426.935	76.5526
424.94	78.74192
422.946	81.5574
420.949	78.9075
418.954	78.90744
416.957	78.7947
414.961	77.4115
412.962	78.7
410.964	82.1459
408.964	89.2032
406.965	101.699
404.9646	123.545
402.962	110.0999
400.961	88.2691
398.958	80.15316
396.956	76.8904
394.951	76.53
392.949	75.2393
390.944	74.6907
388.938	77.2356
386.932	82.8974
384.925	91.1482
382.918	92.62867
380.909	86.7758
378.901	79.4301
376.893	76.8136
374.882	75.8523
372.871	75.0281
370.861	74.0484
368.849	72.2896
366.837	73.109
364.824	76.01403
362.81	75.3414
360.796	74.8586
358.782	73.812
356.765	72.6049
354.75	72.1964
352.734	71.9018
350.716	71.0838
348.698	69.7246
346.681	68.75853
344.661	69.7047
342.641	71.6194
340.621	72.9771
338.6	73.4809
336.577	74.3965
334.555	71.8252
332.5332	71.15567
330.509	70.7203
328.486	71.0825
326.46	71.8344
324.434	72.6105
322.41	72.3789
320.383	71.2684
318.356	70.3357
316.328	71.41848
314.3	74.78286
312.269	72.7278
310.24	74.4697
308.2103	76.08918
306.178	76.3237
304.146	74.539
302.115	73.2187
300.081	75.3964
298.048	76.1979
296.013	74.9532
293.979	72.9563
291.943	71.0741
289.908	69.2642
287.872	67.741
285.833	67.9065
283.796	70.1635
281.7565	71.026
279.719	70.0769
277.678	69.1443
275.637	68.4323
273.596	68.0113
271.554	68.9129
269.512	69.8946
267.469	69.9294
265.426	69.0472
263.381	67.3927
261.337	66.6614
259.292	68.8451
257.245	67.8823
255.198	65.5411
253.1517	64.5586
251.103	66.1705
249.054	68.1524
247.0052	67.3304
244.955	65.847
242.905	64.9056
240.853	65.6273
238.801	65.0183
236.748	62.39632
234.696	61.5028
232.641	62.581
230.588	65.4303
228.533	67.3831
226.477	66.0683
224.42	62.7708
222.364	61.1331
220.306	61.7603
218.2486	62.3377
216.188	62.3687
214.13	62.4167
212.07	62.2249
210.0088	61.0402
207.947	58.7448
205.886	58.4648
203.8231	59.9728
201.7596	59.971
199.696	58.8014
197.631	57.8984
195.5663	58.0897
193.501	58.8013
191.433	59.7794
189.367	61.0343
187.3	61.8545
185.231	60.6593
183.161	58.2959
181.093	60.1823
179.022	60.8327
176.951	60.0555
174.879	59.3622
172.807	58.9104
170.735	58.8287
168.662	58.9204
166.586	59.049
164.512	59.2493
162.4359	59.5908
160.361	60.2309
158.284	60.8782
156.206	61.39534
154.13	61.6471
152.051	61.1688
149.971	60.3635
147.892	58.7999
145.812	57.3722
143.729	56.843
141.648	57.8599
139.566	59.0198
138.002	55.5842