File: bartels lab/3642 MoS2 on 1012 WG/Raman_5_21_2015_Dominic/C3_R2/3642 8401x 3303y Raman 1800 T2 D1 100x.txt
650.268	69.52726
648.343	73.9546
646.417	73.395
644.491	74.7434
642.564	75.394
640.637	75.6549
638.71	75.9662
636.782	76.4346
634.852	77.0324
632.9231	77.7833
630.992	78.9354
629.0625	79.8424
627.131	79.5197
625.198	78.6805
623.2655	77.7237
621.332	77.089
619.3988	76.0835
617.465	78.7951
615.528	83.1395
613.594	84.4409
611.656	76.1415
609.721	72.1754
607.783	74.5977
605.844	73.7763
603.9054	74.67218
601.966	75.6496
600.026	76.9158
598.0863	78.2764
596.146	79.1923
594.205	78.21785
592.261	75.9632
590.32	75.2296
588.375	76.8192
586.431	78.4194
584.486	76.7521
582.54	75.084
580.594	71.9206
578.648	71.402
576.701	73.8807
574.754	76.3379
572.805	76.584
570.857	75.284
568.906	74.461
566.958	74.4708
565.006	75.4441
563.055	76.2473
561.103	75.4357
559.15	76.1731
557.197	75.8564
555.244	74.5091
553.288	76.71418
551.334	78.1283
549.377	78.0159
547.422	78.4712
545.465	82.388
543.507	85.9782
541.549	87.629
539.59	85.9664
537.631	86.9602
535.671	89.9849
533.711	95.913
531.751	105.141
529.788	118.24
527.8269	146.522
525.863	198.944
523.899	367.2038
521.935	1043
519.9696	1913.74
518.004	616.646
516.038	276.1543
514.0722	167.225
512.106	132.65
510.138	111.671
508.169	102.686
506.201	97.5237
504.231	92.5744
502.2598	85.4095
500.289	80.0689
498.317	78.8878
496.345	80.6493
494.372	79.525
492.399	78.4163
490.426	76.6192
488.45	74.1799
486.476	73.5254
484.499	74.9037
482.524	75.5107
480.547	74.9366
478.569	74.1689
476.59	73.0636
474.611	74.402
472.6322	76.8452
470.653	74.6031
468.672	79.0652
466.69	72.6682
464.709	77.46386
462.7254	77.76049
460.744	78.6574
458.759	77.4614
456.775	77.2961
454.7894	79.1279
452.8038	80.3254
450.818	80.1671
448.831	78.7445
446.842	77.7404
444.8551	77.9346
442.867	78.1127
440.877	78.2019
438.886	78.1398
436.897	78.2929
434.906	78.4936
432.914	78.5366
430.922	78.4311
428.929	78.0745
426.935	76.5993
424.94	75.1926
422.946	75.5633
420.949	75.9891
418.954	76.07
416.957	77.0239
414.961	78.6694
412.962	77.0818
410.964	78.8416
408.964	84.0493
406.965	96.6495
404.9646	116.213
402.962	107.433
400.961	87.5566
398.958	81.5012
396.956	78.835
394.951	77.7524
392.949	76.1646
390.944	75.0297
388.938	74.4574
386.932	79.6188
384.925	85.8967
382.918	88.3502
380.909	84.053
378.901	79.5977
376.893	76.5663
374.882	75.0924
372.871	74.2438
370.861	73.5397
368.849	72.9477
366.837	72.7859
364.824	72.586
362.81	69.5678
360.796	69.7583
358.782	71.4135
356.765	72.9151
354.75	73.6146
352.734	73.9321
350.716	73.41301
348.698	72.65757
346.681	72.1303
344.661	73.5869
342.641	74.6505
340.621	73.6326
338.6	71.4172
336.577	69.2718
334.555	67.9045
332.5332	69.1205
330.509	71.765
328.486	73.4771
326.46	73.3565
324.434	72.6479
322.41	72.5178
320.383	72.0275
318.356	71.8374
316.328	72.263
314.3	73.2216
312.269	73.5978
310.24	73.7711
308.2103	75.6013
306.178	79.812
304.146	82.8116
302.115	82.6673
300.081	80.8589
298.048	78.8728
296.013	77.2673
293.979	75.995
291.943	74.44268
289.908	73.0356
287.872	71.8317
285.833	70.9958
283.796	70.9411
281.7565	71.2686
279.719	72.0496
277.678	72.3844
275.637	70.7052
273.596	69.1415
271.554	68.2816
269.512	68.0352
267.469	67.7786
265.426	66.78643
263.381	66.7648
261.337	67.5524
259.292	68.05542
257.245	68.2603
255.198	68.1257
253.1517	66.6386
251.103	64.8661
249.054	64.221
247.0052	64.5332
244.955	65.8577
242.905	67.2545
240.853	67.7757
238.801	67.0656
236.748	65.0924
234.696	65.1647
232.641	65.9954
230.588	67.6016
228.533	67.2075
226.477	66.7404
224.42	65.4755
222.364	65.0557
220.306	65.2994
218.2486	63.72261
216.188	62.1927
214.13	62.1783
212.07	62.508
210.0088	61.1943
207.947	59.3005
205.886	58.7413
203.8231	59.3333
201.7596	60.2771
199.696	59.643
197.631	58.7975
195.5663	59.2693
193.501	61.0171
191.433	60.5471
189.367	61.36272
187.3	62.60268
185.231	61.352
183.161	59.50679
181.093	57.5842
179.022	58.4566
176.951	59.5821
174.879	58.8824
172.807	58.9224
170.735	57.703
168.662	57.1102
166.586	57.9052
164.512	59.9549
162.4359	62.0471
160.361	61.5774
158.284	58.74511
156.206	58.6143
154.13	60.2953
152.051	61.038
149.971	57.6591
147.892	56.9082
145.812	57.9578
143.729	58.0817
141.648	57.16692
139.566	58.5305
138.002	59.82663