File: bartels lab/3642 MoS2 on 1012 WG/raman1_dominic/R2_C1/3642 R2C1 waveguide 2934x 4380y Raman 1800 t2 d1 100x.txt
650.268	79.40416
648.343	76.1921
646.417	77.7469
644.491	80.3278
642.564	82.061
640.637	82.2017
638.71	81.0932
636.782	80.4848
634.852	81.7091
632.9231	83.5692
630.992	83.9136
629.0625	81.81356
627.131	83.1688
625.198	86.9785
623.2655	87.7809
621.332	86.6065
619.3988	84.56871
617.465	82.7072
615.528	81.3282
613.594	80.7439
611.656	81.5021
609.721	82.4221
607.783	83.3495
605.844	83.0129
603.9054	82.5165
601.966	82.0648
600.026	82.9985
598.0863	83.2474
596.146	80.993
594.205	79.6011
592.261	80.26593
590.32	78.8366
588.375	77.7847
586.431	76.9162
584.486	76.3517
582.54	77.151
580.594	79.7367
578.648	81.1431
576.701	81.6777
574.754	82.5697
572.805	83.7802
570.857	84.3657
568.906	83.4619
566.958	81.7076
565.006	80.02713
563.055	79.6799
561.103	80.7601
559.15	82.3406
557.197	83.5856
555.244	84.67337
553.288	86.337
551.334	87.8964
549.377	88.9516
547.422	88.7553
545.465	88.6504
543.507	88.4641
541.549	89.118
539.59	91.30378
537.631	95.66687
535.671	102.158
533.711	111.052
531.751	122.105
529.788	132.274
527.8269	147.039
525.863	209.089
523.899	388.117
521.935	1033.86
519.9696	2191
518.004	889
516.038	339.286
514.0722	197.779
512.106	147.456
510.138	127.372
508.169	112.499
506.201	102.246
504.231	95.1725
502.2598	90.4843
500.289	89.5761
498.317	89.2936
496.345	88.2861
494.372	87.1424
492.399	85.8567
490.426	84.3011
488.45	82.5917
486.476	81.6866
484.499	82.8018
482.524	82.0332
480.547	80.8679
478.569	80.1937
476.59	80.4378
474.611	81.0383
472.6322	82.043
470.653	83.0271
468.672	83.5667
466.69	83.4195
464.709	82.1006
462.7254	81.0607
460.744	82.3939
458.759	85.5948
456.775	88.734
454.7894	89.4721
452.8038	87.3288
450.818	85.1549
448.831	86.2905
446.842	89.1042
444.8551	87.2371
442.867	84.3338
440.877	84.9637
438.886	87.2736
436.897	85.9492
434.906	83.9793
432.914	85.1823
430.922	85.9403
428.929	86.64061
426.935	87.2087
424.94	87.7726
422.946	88.0804
420.949	88.1028
418.954	87.9587
416.957	87.74704
414.961	90.9528
412.962	102.398
410.964	127.627
408.964	166.5587
406.965	195.204
404.9646	157.319
402.962	122.492
400.961	103.669
398.958	93.4565
396.956	89.0524
394.951	86.9523
392.949	85.3483
390.944	85.8394
388.938	90.0396
386.932	100.46
384.925	115.04
382.918	123.34
380.909	115.192
378.901	101.075
376.893	92.943
374.882	90.63443
372.871	90.3508
370.861	86.7392
368.849	83.8142
366.837	82.5808
364.824	83.3179
362.81	81.8614
360.796	79.5622
358.782	78.6893
356.765	79.1894
354.75	81.1177
352.734	83.7498
350.716	85.3883
348.698	84.5566
346.681	81.5999
344.661	84.4737
342.641	89.35482
340.621	90.7548
338.6	87.3477
336.577	83.1082
334.555	79.6316
332.5332	80.6415
330.509	82.8277
328.486	85.9452
326.46	87.1736
324.434	87.41938
322.41	84.416
320.383	86.465
318.356	89.9894
316.328	87.3037
314.3	85.6948
312.269	84.8927
310.24	86.0246
308.2103	90.3065
306.178	94.0568
304.146	95.0086
302.115	92.9608
300.081	91.4782
298.048	89.6753
296.013	87.7548
293.979	86.5275
291.943	86.3822
289.908	87.2703
287.872	85.7731
285.833	83.0386
283.796	80.9474
281.7565	80.894
279.719	82.2582
277.678	84.1798
275.637	84.97718
273.596	82.8715
271.554	79.5747
269.512	77.3081
267.469	77.3099
265.426	78.135
263.381	78.9915
261.337	78.3553
259.292	76.78772
257.245	75.4434
255.198	76.15155
253.1517	77.4725
251.103	77.1333
249.054	75.8039
247.0052	75.3587
244.955	75.4375
242.905	75.3192
240.853	75.1437
238.801	74.7167
236.748	74.5469
234.696	74.8903
232.641	76.9485
230.588	77.03389
228.533	76.2058
226.477	73.9362
224.42	72.1875
222.364	71.3431
220.306	71.4638
218.2486	72.4158
216.188	72.1228
214.13	70.7163
212.07	70.28656
210.0088	70.6783
207.947	70.4277
205.886	68.0327
203.8231	66.1248
201.7596	67.2843
199.696	70.18084
197.631	70.9409
195.5663	70.3266
193.501	68.6513
191.433	67.9364
189.367	68.2497
187.3	68.4498
185.231	68.0695
183.161	67.2448
181.093	67.12616
179.022	67.3235
176.951	67.3953
174.879	67.0599
172.807	65.5578
170.735	64.2338
168.662	64.599
166.586	66.5571
164.512	67.12233
162.4359	66.2315
160.361	65.8179
158.284	66.00946
156.206	66.3442
154.13	66.4943
152.051	66.51886
149.971	66.519
147.892	66.5034
145.812	66.7618
143.729	67.11409
141.648	66.862
139.566	64.6328
138.002	58.617