File: bartels lab/3642 MoS2 on 1012 WG/raman1_dominic/R2_C1/3642 R2C1 waveguide 2983x 4352y Raman 1800 t2 d1 100x.txt
650.268	81.1867
648.343	80.3685
646.417	81.525
644.491	84.371
642.564	87.0836
640.637	86.8902
638.71	84.2929
636.782	82.6214
634.852	83.0875
632.9231	83.2569
630.992	82.6233
629.0625	82.9549
627.131	83.2042
625.198	83.1588
623.2655	82.9838
621.332	80.2923
619.3988	80.058
617.465	80.9592
615.528	84.2912
613.594	83.8037
611.656	83.1578
609.721	82.3736
607.783	82.0368
605.844	82.8086
603.9054	84.67276
601.966	83.4257
600.026	80.786
598.0863	79.6118
596.146	80.9971
594.205	83.7378
592.261	81.7728
590.32	77.8535
588.375	76.2597
586.431	77.6644
584.486	80.957
582.54	82.5201
580.594	82.9825
578.648	80.4264
576.701	78.2549
574.754	78.5993
572.805	78.8864
570.857	79.235
568.906	77.9566
566.958	77.5548
565.006	79.397
563.055	80.3564
561.103	83.212
559.15	83.5351
557.197	82.4706
555.244	83.3443
553.288	83.004
551.334	82.1675
549.377	81.82637
547.422	82.3545
545.465	83.7729
543.507	85.8354
541.549	88.2975
539.59	91.3895
537.631	95.5225
535.671	99.8364
533.711	102.963
531.751	108.15
529.788	119.537
527.8269	143.978
525.863	204.787
523.899	343.026
521.935	1011.73
519.9696	1879.3
518.004	641.361
516.038	269.4397
514.0722	172.268
512.106	133.632
510.138	120.238
508.169	109.623
506.201	98.2616
504.231	90.2607
502.2598	86.61969
500.289	86.8444
498.317	85.90226
496.345	83.8104
494.372	83.4675
492.399	83.7392
490.426	80.9676
488.45	77.3232
486.476	75.6475
484.499	76.358
482.524	78.73983
480.547	80.7421
478.569	81.0576
476.59	80.6778
474.611	82.3558
472.6322	82.7496
470.653	79.9267
468.672	78.5716
466.69	78.8379
464.709	81.91378
462.7254	83.7775
460.744	84.12558
458.759	84.7006
456.775	87.018
454.7894	85.1988
452.8038	87.8172
450.818	84.94986
448.831	84.2702
446.842	86.0192
444.8551	87.7983
442.867	89.6104
440.877	88.2701
438.886	84.4465
436.897	80.0321
434.906	79.1276
432.914	84.2863
430.922	86.7001
428.929	86.05722
426.935	85.5208
424.94	85.1217
422.946	82.4787
420.949	81.1753
418.954	84.0985
416.957	86.5978
414.961	88.1253
412.962	91.76001
410.964	103.365
408.964	122.354
406.965	148.986
404.9646	163.584
402.962	120.756
400.961	95.7167
398.958	88.5842
396.956	83.345
394.951	83.8122
392.949	83.5249
390.944	83.1471
388.938	86.2071
386.932	99.0808
384.925	114.4801
382.918	102.3576
380.909	96.4382
378.901	89.8062
376.893	84.2518
374.882	80.4509
372.871	78.3712
370.861	79.0081
368.849	79.7921
366.837	79.6568
364.824	79.3908
362.81	78.9531
360.796	78.48922
358.782	78.0134
356.765	77.4794
354.75	76.509
352.734	75.71
350.716	76.8452
348.698	78.2594
346.681	78.6392
344.661	77.58
342.641	76.2926
340.621	75.4096
338.6	75.4697
336.577	75.9481
334.555	76.598
332.5332	76.9126
330.509	76.7424
328.486	77.6548
326.46	79.86219
324.434	80.0109
322.41	78.0243
320.383	76.5507
318.356	79.2602
316.328	81.0157
314.3	80.9299
312.269	79.1569
310.24	78.2382
308.2103	80.1622
306.178	82.626
304.146	86.6784
302.115	84.23
300.081	81.8505
298.048	81.693
296.013	84.0919
293.979	84.4502
291.943	81.1072
289.908	76.1274
287.872	74.1177
285.833	74.5915
283.796	75.4368
281.7565	74.36422
279.719	73.5379
277.678	73.9384
275.637	73.6749
273.596	73.8964
271.554	72.4114
269.512	72.4249
267.469	71.503
265.426	71.0351
263.381	70.7665
261.337	70.3013
259.292	68.7325
257.245	68.6802
255.198	70.5313
253.1517	71.8656
251.103	70.8337
249.054	69.5281
247.0052	69.85495
244.955	70.5995
242.905	71.0374
240.853	70.5651
238.801	70.4602
236.748	72.585
234.696	72.8599
232.641	69.0793
230.588	65.9731
228.533	65.6737
226.477	69.5316
224.42	71.5564
222.364	70.8
220.306	69.2928
218.2486	68.9664
216.188	68.0439
214.13	67.2355
212.07	67.4581
210.0088	67.3791
207.947	66.9325
205.886	66.27211
203.8231	65.9155
201.7596	65.49688
199.696	64.9473
197.631	64.37001
195.5663	64.1511
193.501	63.7856
191.433	63.3354
189.367	63.1476
187.3	63.8121
185.231	66.9706
183.161	63.4208
181.093	62.0409
179.022	61.7661
176.951	62.278
174.879	61.2059
172.807	59.6861
170.735	64.4047
168.662	65.0098
166.586	66.1132
164.512	65.9987
162.4359	65.5501
160.361	63.7913
158.284	63.5359
156.206	63.25758
154.13	61.7125
152.051	60.7854
149.971	62.6604
147.892	64.0191
145.812	63.4006
143.729	62.1997
141.648	62.0353
139.566	63.5429
138.002	65.7173