File: bartels lab/3642 MoS2 on 1012 WG/raman1_dominic/R2_C1/3642 R2C1 waveguide 2940x 4380y Raman 1800 t2 d1 100x.txt
650.268	97.7088
648.343	101.828
646.417	103.041
644.491	101.924
642.564	103.096
640.637	105.819
638.71	106.371
636.782	102.329
634.852	97.8657
632.9231	100.064
630.992	102.852
629.0625	103.963
627.131	103.823
625.198	103.311
623.2655	103.974
621.332	105.129
619.3988	105.6231
617.465	105.137
615.528	103.094
613.594	101.084
611.656	100.878
609.721	102.346
607.783	103.494
605.844	99.2271
603.9054	99.3492
601.966	106.297
600.026	106.502
598.0863	100.408
596.146	95.7891
594.205	100.0108
592.261	101.67
590.32	100.575
588.375	102.131
586.431	96.4292
584.486	95.4726
582.54	97.6136
580.594	97.799
578.648	95.2212
576.701	94.6109
574.754	96.8238
572.805	101.369
570.857	102.4319
568.906	98.9371
566.958	100.863
565.006	97.6538
563.055	99.1569
561.103	100.526
559.15	100.538
557.197	99.1232
555.244	97.9443
553.288	98.2472
551.334	99.92334
549.377	102.078
547.422	104.49
545.465	106.6796
543.507	108.873
541.549	111.0746
539.59	113.246
537.631	115.353
535.671	117.4434
533.711	122.497
531.751	134.835
529.788	148.262
527.8269	183.516
525.863	260.401
523.899	420.58
521.935	1167.79
519.9696	2400
518.004	958.619
516.038	370.101
514.0722	237.68
512.106	169.4032
510.138	144.882
508.169	129.479
506.201	121.842
504.231	118.791
502.2598	116.434
500.289	112.736
498.317	108.575
496.345	105.426
494.372	103.0048
492.399	100.9284
490.426	99.833
488.45	100.495
486.476	102.504
484.499	101.109
482.524	99.1542
480.547	99.99707
478.569	102.005
476.59	98.9052
474.611	94.4956
472.6322	95.7103
470.653	101.32
468.672	102.59
466.69	98.9121
464.709	96.0644
462.7254	96.6756
460.744	99.81871
458.759	102.7808
456.775	105.048
454.7894	105.806
452.8038	105.016
450.818	104.949
448.831	106.521
446.842	107.174
444.8551	104.5205
442.867	102.976
440.877	105.161
438.886	106.836
436.897	106.061
434.906	103.638
432.914	101.137
430.922	102.387
428.929	104.0807
426.935	100.827
424.94	96.9757
422.946	98.3578
420.949	99.4412
418.954	100.66
416.957	102.661
414.961	105.878
412.962	110.236
410.964	115.746
408.964	144.555
406.965	177.121
404.9646	171.391
402.962	145.781
400.961	120.484
398.958	105.505
396.956	98.9346
394.951	98.5129
392.949	98.0551
390.944	98.7359
388.938	103.381
386.932	111.826
384.925	119.755
382.918	121.272
380.909	117.027
378.901	110.023
376.893	105.068
374.882	99.6813
372.871	99.159
370.861	98.8959
368.849	97.599
366.837	95.4956
364.824	94.8854
362.81	97.1359
360.796	97.27845
358.782	95.1708
356.765	92.3784
354.75	91.5004
352.734	92.4217
350.716	91.3327
348.698	89.9808
346.681	91.77623
344.661	95.4569
342.641	100.283
340.621	102.2411
338.6	102.249
336.577	99.8759
334.555	96.53
332.5332	93.986
330.509	96.3459
328.486	99.3402
326.46	97.52076
324.434	96.2293
322.41	96.1807
320.383	97.1242
318.356	97.4587
316.328	97.3924
314.3	98.4224
312.269	98.4406
310.24	98.07032
308.2103	98.9305
306.178	101.722
304.146	105.464
302.115	109.1216
300.081	108.064
298.048	104.204
296.013	99.887
293.979	99.4389
291.943	100.702
289.908	98.9305
287.872	95.7415
285.833	94.1399
283.796	93.595
281.7565	93.4506
279.719	93.53183
277.678	93.5916
275.637	93.8547
273.596	94.6298
271.554	95.6502
269.512	94.6687
267.469	90.31118
265.426	86.57563
263.381	86.8923
261.337	89.3433
259.292	89.4083
257.245	88.826
255.198	89.0992
253.1517	89.6395
251.103	89.3459
249.054	87.1518
247.0052	85.9521
244.955	86.7971
242.905	87.877
240.853	87.9887
238.801	87.188
236.748	86.5259
234.696	86.868
232.641	88.1051
230.588	89.2425
228.533	89.3547
226.477	89.5787
224.42	86.6951
222.364	82.0007
220.306	81.0148
218.2486	83.70813
216.188	83.2768
214.13	80.6895
212.07	78.32943
210.0088	77.4267
207.947	78.0535
205.886	79.33374
203.8231	77.2148
201.7596	76.6954
199.696	78.212
197.631	79.191
195.5663	77.81768
193.501	76.4624
191.433	75.9321
189.367	76.9601
187.3	77.3709
185.231	77.0874
183.161	76.6744
181.093	76.2687
179.022	76.4437
176.951	76.7487
174.879	76.947
172.807	75.6447
170.735	74.261
168.662	73.54686
166.586	74.0982
164.512	74.6013
162.4359	74.933
160.361	75.1349
158.284	75.0295
156.206	75.1179
154.13	75.2211
152.051	75.2699
149.971	74.8125
147.892	74.3087
145.812	74.7478
143.729	76.178
141.648	77.7284
139.566	78.3612
138.002	74.5572