File: bartels lab/3642 MoS2 on 1012 WG/raman1_dominic/R2_C1/3642 R2C1 waveguide 2983x 4342y Raman 1800t2 d1 100x.txt
650.268	67.6141
648.343	74.8355
646.417	75.91758
644.491	76.23497
642.564	76.3659
640.637	76.4377
638.71	76.3915
636.782	76.2814
634.852	76.1891
632.9231	76.1326
630.992	76.3401
629.0625	76.6336
627.131	76.9926
625.198	77.23307
623.2655	76.8711
621.332	75.7496
619.3988	74.8422
617.465	75.5652
615.528	78.3608
613.594	78.9538
611.656	75.9018
609.721	72.50573
607.783	73.9988
605.844	76.2103
603.9054	78.1622
601.966	79.6171
600.026	80.3488
598.0863	79.0727
596.146	75.2462
594.205	72.7942
592.261	73.1522
590.32	74.8828
588.375	75.8301
586.431	75.2969
584.486	74.2355
582.54	72.2218
580.594	70.0241
578.648	69.07869
576.701	70.41
574.754	72.3417
572.805	73.3425
570.857	73.835
568.906	75.4554
566.958	76.2934
565.006	75.644
563.055	75.4628
561.103	77.6937
559.15	80.3394
557.197	77.4988
555.244	73.2616
553.288	72.6388
551.334	76.1414
549.377	79.6036
547.422	80.6958
545.465	81.7709
543.507	83.8032
541.549	86.0417
539.59	88.47065
537.631	91.0578
535.671	94.2643
533.711	99.7709
531.751	112.508
529.788	131.711
527.8269	161.428
525.863	212.6427
523.899	428.917
521.935	1254
519.9696	2329
518.004	910.6
516.038	336.454
514.0722	196.174
512.106	149.263
510.138	125.256
508.169	107.445
506.201	96.3906
504.231	90.1591
502.2598	87.7693
500.289	87.7217
498.317	86.5775
496.345	82.8992
494.372	79.2157
492.399	76.9709
490.426	75.5578
488.45	74.2101
486.476	72.721
484.499	71.9807
482.524	73.4596
480.547	75.3771
478.569	75.7583
476.59	76.1612
474.611	76.9613
472.6322	78.2275
470.653	79.6212
468.672	81.0845
466.69	83.0185
464.709	85.0363
462.7254	85.2613
460.744	83.786
458.759	82.7156
456.775	83.2234
454.7894	85.2569
452.8038	88.107
450.818	88.7694
448.831	86.1214
446.842	85.0748
444.8551	84.4447
442.867	83.9546
440.877	83.4306
438.886	83.042
436.897	82.2807
434.906	81.507
432.914	80.8022
430.922	81.7253
428.929	83.121
426.935	84.4503
424.94	85.0387
422.946	85.2923
420.949	85.2042
418.954	84.8337
416.957	84.4058
414.961	85.1445
412.962	91.6587
410.964	108.239
408.964	137.881
406.965	177.103
404.9646	198.739
402.962	142.734
400.961	104.702
398.958	88.1628
396.956	82.8445
394.951	81.4174
392.949	83.801
390.944	82.0848
388.938	82.4669
386.932	100.715
384.925	119.473
382.918	120.211
380.909	106.159
378.901	92.3275
376.893	86.974
374.882	82.3225
372.871	80.3329
370.861	79.216
368.849	78.62291
366.837	78.1602
364.824	77.5359
362.81	77.3417
360.796	77.6073
358.782	77.9391
356.765	78.0322
354.75	77.057
352.734	75.6992
350.716	74.5245
348.698	74.2747
346.681	75.0726
344.661	76.9231
342.641	79.8937
340.621	82.8648
338.6	82.4339
336.577	78.944
334.555	76.4703
332.5332	76.3635
330.509	77.70536
328.486	80.07531
326.46	80.3592
324.434	80.3418
322.41	79.5483
320.383	79.0791
318.356	79.0719
316.328	79.6856
314.3	81.1656
312.269	82.9619
310.24	84.6852
308.2103	84.7101
306.178	84.965
304.146	87.8849
302.115	89.145
300.081	86.9336
298.048	84.69812
296.013	83.6382
293.979	82.5596
291.943	81.4561
289.908	79.9671
287.872	77.3698
285.833	76.0673
283.796	77.8725
281.7565	78.6991
279.719	78.7437
277.678	75.7166
275.637	75.5872
273.596	75.0784
271.554	75.0358
269.512	72.9089
267.469	72.9475
265.426	72.9305
263.381	71.6298
261.337	70.5222
259.292	69.8972
257.245	70.4143
255.198	71.0821
253.1517	71.4701
251.103	70.4729
249.054	68.5327
247.0052	66.21653
244.955	68.559
242.905	73.8667
240.853	74.3091
238.801	72.3228
236.748	69.8007
234.696	69.852
232.641	71.88781
230.588	73.0574
228.533	71.8559
226.477	69.1978
224.42	66.5925
222.364	65.9291
220.306	66.1911
218.2486	66.3838
216.188	66.3655
214.13	66.1922
212.07	65.9751
210.0088	65.7778
207.947	65.5102
205.886	64.9604
203.8231	64.302
201.7596	64.0232
199.696	64.2931
197.631	64.4539
195.5663	63.5836
193.501	62.0097
191.433	60.7181
189.367	60.4125
187.3	60.5174
185.231	60.8885
183.161	62.1184
181.093	65.7112
179.022	64.5465
176.951	63.5785
174.879	63.5805
172.807	64.4488
170.735	64.9773
168.662	63.2043
166.586	61.47834
164.512	61.5994
162.4359	63.1507
160.361	64.2417
158.284	62.8335
156.206	60.89476
154.13	60.4518
152.051	60.6329
149.971	60.6229
147.892	59.5889
145.812	58.8998
143.729	59.0713
141.648	60.5111
139.566	62.743
138.002	64.81