File: bartels lab/3642 MoS2 on 1012 WG/raman1_dominic/R2_C1/3642 R2C1 waveguide 2928x 4380y Raman 1800 t2 d1 100x.txt
650.268	73.2269
648.343	76.4844
646.417	78.7395
644.491	79.4934
642.564	78.4885
640.637	76.6938
638.71	76.1058
636.782	77.965
634.852	80.041
632.9231	80.6605
630.992	78.7923
629.0625	77.2315
627.131	77.75827
625.198	79.4767
623.2655	81.08593
621.332	81.2289
619.3988	81.721
617.465	81.486
615.528	80.0435
613.594	79.20916
611.656	80.823
609.721	81.94313
607.783	80.8233
605.844	79.00602
603.9054	78.7834
601.966	79.5192
600.026	80.3392
598.0863	80.9204
596.146	81.0166
594.205	80.54
592.261	78.8397
590.32	77.20681
588.375	78.035
586.431	78.9262
584.486	79.3437
582.54	78.38134
580.594	76.15847
578.648	74.0027
576.701	76.4842
574.754	79.4773
572.805	79.4039
570.857	78.3714
568.906	79.0026
566.958	81.4351
565.006	82.7364
563.055	81.5444
561.103	77.2069
559.15	79.24427
557.197	75.3177
555.244	83.5663
553.288	85.22818
551.334	79.354
549.377	80.652
547.422	82.5725
545.465	82.88195
543.507	84.0572
541.549	86.47538
539.59	90.4543
537.631	95.0998
535.671	98.5656
533.711	101.916
531.751	111.094
529.788	123.5368
527.8269	147.122
525.863	202.532
523.899	360.494
521.935	1046.23
519.9696	2082
518.004	779.507
516.038	314.447
514.0722	187.874
512.106	134.3887
510.138	118.484
508.169	108.1971
506.201	97.48159
504.231	90.0099
502.2598	86.1847
500.289	83.9448
498.317	82.0392
496.345	80.8859
494.372	80.66777
492.399	81.4274
490.426	81.4267
488.45	80.9247
486.476	80.8323
484.499	81.735
482.524	82.4867
480.547	79.191
478.569	73.4284
476.59	74.764
474.611	77.7458
472.6322	81.4097
470.653	80.7304
468.672	81.9468
466.69	82.7275
464.709	83.4069
462.7254	84.2855
460.744	87.0088
458.759	90.1982
456.775	91.4825
454.7894	91.0518
452.8038	90.2874
450.818	90.57132
448.831	90.5974
446.842	90.4242
444.8551	89.8161
442.867	89.7409
440.877	89.8225
438.886	89.1161
436.897	86.7079
434.906	85.1115
432.914	85.5237
430.922	86.31263
428.929	83.5601
426.935	80.7761
424.94	80.3902
422.946	82.5266
420.949	86.6932
418.954	90.781
416.957	93.8893
414.961	99.2029
412.962	104.068
410.964	130.596
408.964	197.928
406.965	299.744
404.9646	241.438
402.962	144.807
400.961	108.734
398.958	97.8508
396.956	86.4703
394.951	83.1596
392.949	82.5559
390.944	81.2467
388.938	86.9815
386.932	106.267
384.925	132.04
382.918	146.995
380.909	133.437
378.901	111.875
376.893	97.026
374.882	92.1974
372.871	89.1188
370.861	85.3977
368.849	81.1572
366.837	81.0481
364.824	80.6422
362.81	80.7769
360.796	81.1038
358.782	82.2794
356.765	82.8339
354.75	77.4349
352.734	76.9869
350.716	77.4349
348.698	79.7125
346.681	77.402
344.661	78.2812
342.641	82.1896
340.621	85.774
338.6	85.3265
336.577	80.5228
334.555	78.079
332.5332	78.8119
330.509	80.6817
328.486	80.5657
326.46	79.9033
324.434	80.3072
322.41	82.1208
320.383	84.1819
318.356	85.1799
316.328	84.8968
314.3	84.1848
312.269	83.6964
310.24	85.1062
308.2103	86.4094
306.178	87.48938
304.146	88.3218
302.115	88.5566
300.081	87.5043
298.048	83.04792
296.013	79.0102
293.979	77.39135
291.943	80.5092
289.908	83.0403
287.872	84.2562
285.833	84.3008
283.796	82.41
281.7565	79.1143
279.719	76.0421
277.678	74.1847
275.637	73.4995
273.596	73.5766
271.554	75.1577
269.512	75.8783
267.469	75.0564
265.426	74.1318
263.381	73.005
261.337	73.09211
259.292	72.8867
257.245	72.4653
255.198	71.6993
253.1517	70.4146
251.103	68.9486
249.054	68.6389
247.0052	71.1663
244.955	73.1254
242.905	72.5758
240.853	71.6106
238.801	72.1651
236.748	73.4461
234.696	74.7996
232.641	75.7306
230.588	75.9746
228.533	74.725
226.477	71.9573
224.42	69.9794
222.364	69.6655
220.306	69.8124
218.2486	69.3927
216.188	68.0938
214.13	66.2333
212.07	66.8386
210.0088	65.5222
207.947	65.9836
205.886	67.9049
203.8231	66.95871
201.7596	66.1991
199.696	64.1318
197.631	64.1283
195.5663	64.0585
193.501	63.3566
191.433	62.94976
189.367	63.50663
187.3	64.1617
185.231	64.6802
183.161	64.5824
181.093	63.9403
179.022	63.2175
176.951	64.4232
174.879	68.0928
172.807	65.1019
170.735	63.2057
168.662	65.1768
166.586	64.5122
164.512	64.1636
162.4359	64.06134
160.361	64.3174
158.284	64.1857
156.206	63.9189
154.13	65.0595
152.051	66.5797
149.971	66.6668
147.892	65.4341
145.812	63.7901
143.729	62.4916
141.648	61.4271
139.566	61.1353
138.002	64.4275