File: bartels lab/3642 MoS2 on 1012 WG/Raman_5_21_2015_Dominic/C3_R2/python files used/3642_8401x_3256y/3642 8432x 3298y Raman 1800 T2 D1 100x.txt
650.268	59.617
648.343	60.5788
646.417	60.5918
644.491	60.6373
642.564	60.7285
640.637	60.6949
638.71	60.6388
636.782	60.6585
634.852	60.9408
632.9231	60.4789
630.992	62.511
629.0625	60.7764
627.131	61.0645
625.198	61.6544
623.2655	63.0718
621.332	63.5246
619.3988	62.49641
617.465	61.5247
615.528	60.8257
613.594	61.10603
611.656	62.7321
609.721	63.3351
607.783	61.9466
605.844	58.4757
603.9054	60.6551
601.966	62.3488
600.026	62.5629
598.0863	61.32534
596.146	60.4008
594.205	62.0535
592.261	64.111
590.32	62.6546
588.375	60.13525
586.431	62.2979
584.486	62.0714
582.54	59.2376
580.594	54.06995
578.648	54.22823
576.701	58.05809
574.754	59.0426
572.805	56.9308
570.857	58.1219
568.906	60.6203
566.958	60.9577
565.006	60.1214
563.055	59.0752
561.103	58.7816
559.15	58.5935
557.197	58.5501
555.244	59.5896
553.288	61.2985
551.334	62.9128
549.377	63.0988
547.422	63.4897
545.465	65.4948
543.507	67.7229
541.549	68.5241
539.59	67.7933
537.631	70.1755
535.671	73.4579
533.711	75.6153
531.751	82.2008
529.788	92.6874
527.8269	115.562
525.863	162.0289
523.899	323.289
521.935	963.936
519.9696	1125
518.004	373.032
516.038	171.542
514.0722	119.886
512.106	95.3065
510.138	83.7367
508.169	74.3829
506.201	69.9325
504.231	68.7332
502.2598	67.9905
500.289	66.9378
498.317	65.7636
496.345	64.3568
494.372	63.054
492.399	62.1073
490.426	61.5356
488.45	61.6842
486.476	61.9463
484.499	62.7076
482.524	63.3128
480.547	61.924
478.569	59.8121
476.59	58.3846
474.611	58.7042
472.6322	60.5258
470.653	62.5965
468.672	63.1794
466.69	62.6038
464.709	62.1778
462.7254	63.4565
460.744	64.8466
458.759	66.01696
456.775	66.3479
454.7894	66.37899
452.8038	65.65683
450.818	64.6736
448.831	64.0359
446.842	64.5652
444.8551	65.1396
442.867	64.8534
440.877	64.27137
438.886	65.0718
436.897	66.5933
434.906	65.4965
432.914	63.72665
430.922	62.36937
428.929	62.3131
426.935	63.7293
424.94	65.3182
422.946	65.727
420.949	65.5847
418.954	65.3458
416.957	66.4016
414.961	70.0387
412.962	71.2879
410.964	74.4965
408.964	81.2484
406.965	92.7403
404.9646	104.67
402.962	87.6933
400.961	72.2978
398.958	64.2165
396.956	62.8356
394.951	63.47995
392.949	63.9384
390.944	63.9582
388.938	65.7597
386.932	73.24955
384.925	84.382
382.918	80.3536
380.909	71.18734
378.901	66.1434
376.893	62.4665
374.882	62.1802
372.871	63.5574
370.861	64.69976
368.849	63.1815
366.837	61.7225
364.824	60.5593
362.81	59.8195
360.796	59.5836
358.782	60.0032
356.765	60.9651
354.75	62.024
352.734	62.3477
350.716	61.3897
348.698	59.7066
346.681	59.3732
344.661	61.468
342.641	61.8003
340.621	60.58
338.6	57.6409
336.577	58.4291
334.555	61.0597
332.5332	63.19125
330.509	62.4056
328.486	60.4796
326.46	59.54903
324.434	59.643
322.41	61.4583
320.383	62.1025
318.356	62.8494
316.328	63.4911
314.3	64.5326
312.269	65.6505
310.24	66.4263
308.2103	66.6285
306.178	65.9281
304.146	65.7284
302.115	65.5651
300.081	65.17
298.048	64.5334
296.013	63.7372
293.979	62.9258
291.943	62.0415
289.908	62.4363
287.872	62.9454
285.833	63.06274
283.796	62.4941
281.7565	61.6243
279.719	60.4739
277.678	59.8102
275.637	59.675
273.596	58.8065
271.554	56.5139
269.512	55.5036
267.469	57.5283
265.426	58.8267
263.381	58.7995
261.337	57.5445
259.292	56.2895
257.245	55.9525
255.198	55.7413
253.1517	56.2635
251.103	56.72966
249.054	57.18021
247.0052	56.9849
244.955	56.5195
242.905	56.1647
240.853	56.9404
238.801	58.0579
236.748	58.0704
234.696	57.0112
232.641	56.4695
230.588	57.71133
228.533	58.5146
226.477	57.438
224.42	56.0892
222.364	54.8132
220.306	54.1137
218.2486	53.8241
216.188	53.7226
214.13	53.7102
212.07	52.76939
210.0088	51.2815
207.947	50.3449
205.886	51.677
203.8231	54.2203
201.7596	55.5676
199.696	54.1751
197.631	52.7892
195.5663	52.76535
193.501	51.0755
191.433	50.57
189.367	52.2162
187.3	52.56641
185.231	53.4607
183.161	52.3891
181.093	51.5716
179.022	50.9025
176.951	50.6665
174.879	50.621
172.807	50.9247
170.735	51.6234
168.662	52.5809
166.586	53.2994
164.512	52.4051
162.4359	50.0361
160.361	48.45187
158.284	48.8333
156.206	49.6845
154.13	50.7617
152.051	50.7945
149.971	50.1319
147.892	49.7054
145.812	51.3666
143.729	53.856
141.648	54.9314
139.566	53.7085
138.002	48.32629