File: bartels lab/3642 MoS2 on 1012 WG/Raman_5_21_2015_Dominic/C3_R2/python files used/3642_8401x_3256y/3642 8401x 3250y Raman 1800 T2 D1 100x.txt
650.268	82.1289
648.343	80.1783
646.417	82.67
644.491	84.0158
642.564	83.1257
640.637	81.4336
638.71	77.7068
636.782	85.9531
634.852	84.817
632.9231	82.9279
630.992	81.1681
629.0625	81.9106
627.131	85.25473
625.198	83.9254
623.2655	81.2687
621.332	81.3424
619.3988	81.3893
617.465	82.2902
615.528	83.9204
613.594	82.78862
611.656	81.957
609.721	82.0705
607.783	82.6218
605.844	82.4936
603.9054	79.9726
601.966	79.7422
600.026	83.6839
598.0863	85.57222
596.146	84.5349
594.205	81.7406
592.261	79.4796
590.32	78.6088
588.375	78.6045
586.431	78.8827
584.486	77.8667
582.54	79.03775
580.594	81.1221
578.648	81.6547
576.701	79.3828
574.754	76.1513
572.805	76.8099
570.857	79.0733
568.906	80.7011
566.958	81.9869
565.006	83.7486
563.055	81.5117
561.103	79.2778
559.15	78.4908
557.197	79.729
555.244	81.2988
553.288	81.2289
551.334	80.1012
549.377	80.5315
547.422	82.7516
545.465	85.2513
543.507	87.0564
541.549	88.3644
539.59	89.1655
537.631	89.4262
535.671	91.8852
533.711	96.4362
531.751	102.094
529.788	108.391
527.8269	122.6336
525.863	163.119
523.899	266.124
521.935	829
519.9696	1039
518.004	371.348
516.038	179.048
514.0722	131.644
512.106	110.713
510.138	96.3839
508.169	90.4077
506.201	88.26725
504.231	84.8836
502.2598	81.6277
500.289	80.6811
498.317	82.7652
496.345	82.1461
494.372	79.7201
492.399	77.6074
490.426	77.1535
488.45	77.2549
486.476	76.597
484.499	76.9749
482.524	78.59465
480.547	79.8306
478.569	79.1004
476.59	78.0206
474.611	78.1407
472.6322	78.8397
470.653	79.3772
468.672	79.6499
466.69	80.3481
464.709	81.2354
462.7254	82.2938
460.744	83.4158
458.759	84.1176
456.775	83.869
454.7894	82.9808
452.8038	81.4756
450.818	80.3061
448.831	81.7647
446.842	81.0619
444.8551	82.2382
442.867	83.6514
440.877	86.3417
438.886	84.3256
436.897	81.3626
434.906	78.7561
432.914	78.7392
430.922	79.8078
428.929	80.3646
426.935	80.482
424.94	80.6799
422.946	79.5013
420.949	77.8863
418.954	78.0434
416.957	79.5852
414.961	83.1498
412.962	86.7066
410.964	90.7019
408.964	98.8601
406.965	112.56
404.9646	118.6041
402.962	106.664
400.961	89.3545
398.958	79.1972
396.956	79.4842
394.951	80.585
392.949	79.7041
390.944	79.4637
388.938	82.6944
386.932	89.9753
384.925	94.8716
382.918	95.4833
380.909	89.82093
378.901	82.4223
376.893	78.0611
374.882	78.0118
372.871	79.8943
370.861	78.862
368.849	76.8678
366.837	75.1076
364.824	76.4987
362.81	77.6806
360.796	77.19783
358.782	75.3289
356.765	74.56572
354.75	75.731
352.734	76.4535
350.716	75.2063
348.698	74.6642
346.681	76.914
344.661	75.3051
342.641	74.4775
340.621	76.6997
338.6	75.42289
336.577	74.551
334.555	73.7589
332.5332	75.0618
330.509	75.9624
328.486	73.98732
326.46	74.0133
324.434	77.14653
322.41	78.8153
320.383	75.694
318.356	74.9735
316.328	75.3404
314.3	77.0904
312.269	78.7909
310.24	79.3713
308.2103	78.947
306.178	78.3465
304.146	78.1002
302.115	78.1027
300.081	77.82518
298.048	77.1379
296.013	76.1344
293.979	74.5018
291.943	73.1655
289.908	72.9185
287.872	74.2611
285.833	77.0403
283.796	78.43782
281.7565	77.04818
279.719	75.6474
277.678	75.6863
275.637	75.69487
273.596	75.452
271.554	74.5543
269.512	72.6084
267.469	70.7145
265.426	69.1235
263.381	69.78717
261.337	70.8622
259.292	71.2826
257.245	70.7942
255.198	70.782
253.1517	72.8234
251.103	74.8005
249.054	71.6801
247.0052	69.8948
244.955	69.8407
242.905	71.348
240.853	72.6276
238.801	72.5899
236.748	71.15361
234.696	69.6907
232.641	69.9434
230.588	70.8248
228.533	71.3127
226.477	70.4644
224.42	69.61071
222.364	69.21772
220.306	69.47
218.2486	69.4829
216.188	69.2452
214.13	68.4233
212.07	67.7171
210.0088	67.3618
207.947	66.9427
205.886	66.1052
203.8231	64.1329
201.7596	63.9969
199.696	64.7169
197.631	65.0882
195.5663	65.5928
193.501	66.6119
191.433	67.1149
189.367	64.7961
187.3	62.5958
185.231	62.4794
183.161	64.89782
181.093	64.0215
179.022	62.62886
176.951	62.7912
174.879	64.6473
172.807	65.1152
170.735	63.3856
168.662	62.5009
166.586	63.9132
164.512	65.832
162.4359	64.7986
160.361	63.3779
158.284	62.521
156.206	64.5624
154.13	66.76902
152.051	66.06913
149.971	63.379
147.892	60.93338
145.812	61.1325
143.729	62.9927
141.648	65.91053
139.566	68.4658
138.002	66.7888