File: bartels lab/3642 MoS2 on 1012 WG/Raman_5_21_2015_Dominic/C3_R2/python files used/3642_8401x_3256y/3642 8432x 3298y Pl 600 T2 D1 100x.txt
1.78927	3319.72
1.7898	3423.25
1.79033	3410.054
1.79086	3396.38
1.7914	3483.28
1.79193	3494.27
1.79247	3484.15
1.793	3538.02
1.79353	3558.17
1.79407	3562.25
1.794605	3618.57
1.79514	3658.45
1.79568	3670.04
1.79621	3696.76
1.79675	3728.01
1.79729	3754.54
1.79782	3767.5
1.79836	3794.63
1.798901	3843.96
1.79944	3864.84
1.79998	3880.15
1.80052	3897.36
1.80106	3901.39
1.8016	3915.39
1.80214	3941.49
1.80268	3968.36
1.803219	3991.28
1.80376	3996.31
1.8043	4004.05
1.80484	4021.51
1.80539	4029.29
1.80593	4030.78
1.80647	4053.96
1.80702	4080.93
1.80756	4095.98
1.8081	4101.84
1.80865	4110.39
1.80919	4118.6
1.80974	4140.71
1.81028	4185.2
1.81083	4230.15
1.81138	4256.22
1.81192	4265.16
1.81247	4289.65
1.81302	4327.66
1.81356	4358.16
1.81411	4392.418
1.81466	4438.68
1.81521	4493.28
1.81576	4549.28
1.81631	4603.76
1.81686	4632.73
1.81741	4677.79
1.817959	4757.16
1.81851	4821.51
1.819061	4836.67
1.81961	4876.25
1.82016	4934.13
1.82072	4974.71
1.82127	5014.94
1.82182	5061.36
1.82238	5103.97
1.82293	5137.46
1.82348	5163.05
1.82404	5178.35
1.82459	5184.13
1.82515	5198.3
1.8257	5212.377
1.82626	5225.6
1.82682	5238.55
1.82737	5261.04
1.82793	5301
1.82849	5332.61
1.82905	5353.84
1.8296	5369.125
1.830162	5402.18
1.83072	5447.42
1.83128	5458.14
1.83184	5456.14
1.8324	5523.37
1.83296	5597.65
1.83352	5641.61
1.83408	5666.54
1.83464	5700.314
1.835205	5738.65
1.83577	5781.877
1.83633	5838.72
1.83689	5887.39
1.83746	5920.46
1.83802	5946.78
1.83858	5974.87
1.83915	6047.22
1.83971	6129.81
1.84028	6200.43
1.84084	6226.45
1.84141	6248.9
1.84198	6286.64
1.84254	6317.67
1.843109	6317.5
1.84368	6327.47
1.84424	6339.438
1.84481	6375.29
1.84538	6393.48
1.84595	6412.84
1.84652	6427.34
1.84709	6423.31
1.84766	6425.38
1.84823	6445.24
1.8488	6470.36
1.84937	6463.42
1.84994	6438.71
1.85051	6464.92
1.85109	6513.08
1.85166	6525.16
1.85223	6491.34
1.85281	6474.311
1.853379	6478.69
1.853953	6478.08
1.85453	6457.05
1.8551	6437.52
1.85568	6471.53
1.85625	6491.09
1.85683	6477.49
1.85741	6422.37
1.85798	6426.74
1.85856	6457.18
1.85914	6457.2
1.85972	6423.49
1.86029	6383.74
1.86087	6379.5
1.86145	6347.39
1.862031	6306.26
1.86261	6304.02
1.863191	6290.72
1.86377	6269.68
1.86435	6258.96
1.86493	6251.002
1.86552	6234.99
1.8661	6224.41
1.86668	6209.12
1.86726	6180.8
1.867847	6159.92
1.86843	6133.21
1.86901	6105.56
1.8696	6067.42
1.87018	6040.84
1.87077	6029.24
1.87136	6022.853
1.87194	5994.27
1.87253	5934.96
1.87311	5861.24
1.8737	5831.248
1.87429	5825.53
1.87488	5789.67
1.87547	5731.85
1.87605	5663.3
1.87664	5598.53
1.87723	5539.7
1.87782	5488.03
1.87841	5443.43
1.879	5391.09
1.8796	5311.95
1.88019	5195.35
1.88078	5087.54
1.88137	5063.061
1.88196	4967.63
1.88256	4899.17
1.88315	4834.19
1.88375	4769.999
1.88434	4695.87
1.88493	4634.53
1.88553	4584.31
1.88612	4546.38
1.88672	4505.89
1.88732	4442
1.88791	4352.48
1.88851	4285.44
1.88911	4253.19
1.88971	4203.12
1.8903	4156.53
1.8909	4124.85
1.8915	4056.73
1.892102	4000.76
1.8927	3954.39
1.8933	3921.24
1.8939	3884.865
1.8945	3829.79
1.89511	3755.04
1.89571	3692.7
1.89631	3654.93
1.89691	3633.36
1.89752	3592.23
1.89812	3531.85
1.89872	3462.23
1.89933	3409.08
1.899933	3359.49
1.90054	3331.56
1.90114	3294.43
1.90175	3242.09
1.90236	3186.82
1.90296	3137.07
1.90357	3090.21
1.90418	3040.1
1.90479	2994.49
1.90539	2953.83
1.906	2909.23
1.90661	2860.82
1.90722	2810.21
1.90783	2774.42
1.90844	2732.22
1.90905	2687.31
1.90967	2652.54
1.91028	2626.99
1.91089	2571.52
1.9115	2497.32
1.91212	2470.95
1.91273	2428.04
1.91334	2400.82
1.913957	2371.35
1.91457	2327.93
1.91519	2270.81
1.9158	2227.97
1.91642	2205.814
1.91703	2181.18
1.91765	2149.12
1.91827	2118.38
1.91889	2094.94
1.9195	2058.67
1.92012	2032.02
1.92074	2017.96
1.92136	2009.575
1.92198	1992.45
1.9226	1962.27
1.92322	1927.71
1.92384	1906.61
1.924464	1896.17
1.92509	1894.31
1.92571	1876.56
1.92633	1855.57
1.926954	1845.9
1.92758	1837.41
1.9282	1809.52
1.928826	1788.03
1.92945	1773.38
1.930076	1759.54
1.9307	1729.3
1.93133	1705.41
1.93195	1685.1
1.93258	1657.53
1.93321	1631.16
1.93384	1608.8
1.93446	1592.24
1.93509	1576.21
1.93572	1554
1.93635	1534.73
1.936982	1507.46
1.93745	1505.06