File: bartels lab/3642 MoS2 on 1012 WG/Raman_5_21_2015_Dominic/C3_R2/python files used/3642_8401x_3256y/3642 8401x 3250y PL 600 T2 D1 100x.txt
1.77173	2704
1.772251	2732.26
1.77277	2755.99
1.7733	2779.74
1.77382	2793.88
1.77434	2801.06
1.774864	2821.51
1.77539	2852.531
1.77591	2882.31
1.77644	2891.95
1.77696	2883.65
1.77749	2890.69
1.77801	2916.18
1.778536	2949.04
1.77906	2970.29
1.77959	2978.7
1.78011	3002.1
1.78064	3036.06
1.78117	3070.38
1.7817	3073.7
1.78222	3067.45
1.782753	3063.84
1.78328	3074.2
1.78381	3098.87
1.78434	3121.45
1.78487	3148.71
1.7854	3171.42
1.78593	3193.8
1.78646	3208.9
1.78699	3218.34
1.78752	3239.446
1.78805	3248
1.78859	3267.99
1.78912	3299.87
1.78965	3337.21
1.79018	3364.39
1.79072	3389.38
1.79125	3419.175
1.79179	3450.81
1.79232	3461.05
1.79285	3489.94
1.79339	3535.45
1.79393	3582.3
1.79446	3614.73
1.795	3646
1.79553	3692.05
1.79607	3738.99
1.79661	3784.446
1.79715	3812.27
1.79768	3843.14
1.79822	3873.06
1.79876	3904.61
1.799299	3945.6
1.79984	3968.05
1.80038	3988.01
1.80092	4016.55
1.801458	4056.2
1.802	4084.37
1.80254	4115.22
1.803081	4129.502
1.80362	4165.7
1.80416	4205.92
1.80471	4226.97
1.80525	4226.93
1.80579	4236.12
1.80634	4250.72
1.80688	4262.88
1.80742	4297.12
1.80797	4314
1.80851	4335.812
1.80906	4349.98
1.8096	4383.4
1.81015	4421.74
1.8107	4455.78
1.81124	4493.31
1.81179	4536.28
1.81234	4584.7
1.81289	4631.42
1.81343	4677.29
1.81398	4745.1
1.81453	4792.67
1.81508	4825.65
1.815629	4942.26
1.81618	5026.12
1.81673	5073.2
1.81728	5129.73
1.81783	5161.88
1.81838	5234.81
1.81893	5330.82
1.81949	5413.19
1.82004	5475.24
1.82059	5499.77
1.82114	5531.07
1.8217	5595.63
1.82225	5645.09
1.8228	5697.42
1.82336	5746.05
1.82391	5792.79
1.82447	5825.06
1.82502	5846.4
1.82558	5884.86
1.82614	5903.17
1.82669	5932.14
1.82725	5977.59
1.82781	6027.47
1.82837	6064.293
1.82892	6101.76
1.82948	6141.35
1.83004	6190.35
1.8306	6228.104
1.83116	6279.13
1.83172	6326.17
1.83228	6380.312
1.83284	6414.35
1.8334	6487.31
1.833963	6575.64
1.83452	6658.62
1.83509	6721.01
1.83565	6788.29
1.83621	6859.14
1.83678	6916.78
1.83734	6982.61
1.8379	7048.45
1.83847	7128.91
1.83903	7209.85
1.8396	7298.43
1.84016	7362.82
1.84073	7417.03
1.84129	7482.89
1.84186	7521.36
1.84243	7567.75
1.843	7584.28
1.84356	7630.24
1.84413	7702.43
1.8447	7758.29
1.84527	7769.54
1.84584	7767.13
1.84641	7791.64
1.84698	7803.44
1.84755	7810.7
1.84812	7836.13
1.84869	7891.26
1.84926	7930.3
1.84983	7936.16
1.8504	7906.8
1.85098	7913.69
1.85155	7946.3
1.85212	7980.478
1.8527	7996.73
1.85327	7989.12
1.853846	8016.2
1.85442	8027.82
1.855	8007.94
1.85557	7980.38
1.85615	7965.98
1.85672	7988.78
1.8573	8005.97
1.85788	8008.22
1.85846	8001.47
1.859033	7992.09
1.85961	7964.896
1.86019	7936.51
1.86077	7911.23
1.86135	7899.04
1.86193	7875.584
1.86251	7831.66
1.863089	7799.08
1.86367	7803.28
1.86425	7784.78
1.864833	7756.19
1.86542	7691.43
1.866	7631.05
1.86658	7617.6
1.86716	7626.25
1.86775	7629.52
1.86833	7599.4
1.86892	7553.63
1.8695	7495.981
1.87009	7477.73
1.87067	7450.74
1.87126	7387.65
1.87184	7331.81
1.87243	7297.228
1.87302	7257.74
1.87361	7205.25
1.87419	7092.3
1.87478	7014.39
1.87537	7032.51
1.87596	6945.86
1.87655	6866.37
1.87714	6747.47
1.87773	6632.5
1.87832	6519.49
1.87891	6433.69
1.8795	6346.88
1.88009	6258.11
1.88069	6180.21
1.881279	6070.01
1.88187	5958.1
1.88247	5856.04
1.88306	5766.18
1.88365	5665.92
1.88425	5576.66
1.88484	5490.19
1.88544	5411.46
1.88603	5330.01
1.88663	5242.62
1.88723	5156.85
1.88782	5076.6
1.888422	4992.86
1.88902	4905.47
1.889618	4831.96
1.89022	4764.81
1.89082	4706.02
1.89142	4673.917
1.892015	4535.18
1.89262	4476.69
1.89322	4424.69
1.89382	4361.11
1.89442	4296.37
1.89502	4235.38
1.89562	4174.09
1.89623	4108
1.89683	4030.26
1.89743	3949.97
1.89804	3878.82
1.89864	3821.12
1.89924	3761.26
1.89985	3700.84
1.90046	3635.77
1.90106	3584.87
1.90167	3525.34
1.90227	3452.98
1.90288	3388.26
1.90349	3330.01
1.904097	3261.21
1.90471	3180.48
1.90531	3109.09
1.90592	3066.11
1.90653	3012.76
1.90714	2964.73
1.90775	2905
1.90836	2847.406
1.90898	2791.97
1.909587	2741.63
1.9102	2682.74
1.91081	2621.05
1.91142	2562.79
1.91204	2528.59
1.91265	2485.03
1.91327	2442.094
1.91388	2388.61
1.9145	2328.95
1.91511	2274.02
1.91573	2225.04
1.91634	2193.67
1.91681	2166.97