File: bartels lab/3642 MoS2 on 1012 WG/Raman_5_21_2015_Dominic/C3_R2/python files used/3642_8401x_3256y/3642 8401x 3296y Raman 1800 T2 D1 100x.txt
650.268	52.5425
648.343	52.1419
646.417	53.2159
644.491	54.3006
642.564	54.4054
640.637	54.7984
638.71	55.9327
636.782	56.9733
634.852	54.4929
632.9231	51.4358
630.992	53.4367
629.0625	56.0829
627.131	57.5496
625.198	57.3735
623.2655	57.67136
621.332	58.6825
619.3988	58.1081
617.465	56.2464
615.528	54.022
613.594	54.175
611.656	56.3284
609.721	57.7497
607.783	57.31184
605.844	56.7312
603.9054	56.1583
601.966	55.9979
600.026	57.3847
598.0863	57.1509
596.146	56.74408
594.205	56.4737
592.261	55.9017
590.32	54.1734
588.375	55.6517
586.431	55.3032
584.486	51.8654
582.54	51.605
580.594	54.5276
578.648	57.3468
576.701	56.2351
574.754	54.4545
572.805	54.2115
570.857	54.5788
568.906	53.7148
566.958	52.5033
565.006	52.9178
563.055	55.3355
561.103	56.9597
559.15	56.7603
557.197	55.3423
555.244	56.03714
553.288	57.2189
551.334	58.16061
549.377	57.7938
547.422	59.4529
545.465	61.6053
543.507	62.5655
541.549	62.3793
539.59	63.39325
537.631	65.4939
535.671	71.1337
533.711	78.65081
531.751	86.427
529.788	94.22332
527.8269	110.5041
525.863	164.142
523.899	344.47
521.935	1048
519.9696	1453.19
518.004	462.057
516.038	196.567
514.0722	133.508
512.106	102.251
510.138	85.2151
508.169	77.4624
506.201	73.81105
504.231	70.5404
502.2598	65.5725
500.289	63.1073
498.317	63.2617
496.345	64.245
494.372	61.8593
492.399	60.7035
490.426	61.20377
488.45	61.5354
486.476	58.8118
484.499	57.5155
482.524	57.903
480.547	57.3946
478.569	56.55
476.59	55.8496
474.611	56.8778
472.6322	58.8945
470.653	60.3225
468.672	60.8192
466.69	58.1373
464.709	56.5849
462.7254	59.2916
460.744	56.469
458.759	59.1253
456.775	59.4588
454.7894	59.3062
452.8038	59.1124
450.818	61.8638
448.831	62.8602
446.842	61.5992
444.8551	59.4497
442.867	58.0723
440.877	60.2383
438.886	61.8332
436.897	61.6368
434.906	62.0782
432.914	62.3052
430.922	61.6091
428.929	59.4107
426.935	59.6981
424.94	60.75341
422.946	60.711
420.949	60.2388
418.954	61.3521
416.957	60.2704
414.961	61.2328
412.962	65.7219
410.964	74.9813
408.964	90.0064
406.965	103.267
404.9646	102.553
402.962	87.0095
400.961	71.2085
398.958	61.1669
396.956	59.06649
394.951	59.6652
392.949	61.127
390.944	62.01981
388.938	64.08
386.932	69.8694
384.925	75.7905
382.918	76.3074
380.909	71.0051
378.901	65.695
376.893	62.1371
374.882	59.3804
372.871	60.0916
370.861	60.9577
368.849	59.5653
366.837	56.9414
364.824	55.2212
362.81	59.50737
360.796	58.515
358.782	58.0966
356.765	58.3497
354.75	59.4268
352.734	59.5929
350.716	58.182
348.698	59.28067
346.681	59.7935
344.661	58.9821
342.641	57.5975
340.621	57.4191
338.6	58.993
336.577	58.7782
334.555	57.6985
332.5332	56.3971
330.509	57.1783
328.486	59.23296
326.46	61.0382
324.434	60.5448
322.41	58.3089
320.383	59.9097
318.356	61.956
316.328	62.9081
314.3	61.6516
312.269	62.0569
310.24	63.13195
308.2103	63.99828
306.178	66.5887
304.146	68.0292
302.115	67.4535
300.081	66.0744
298.048	64.8928
296.013	62.135
293.979	61.334
291.943	61.1692
289.908	61.2116
287.872	61.7625
285.833	59.47739
283.796	59.0126
281.7565	57.4841
279.719	63.0626
277.678	59.1166
275.637	58.85
273.596	57.6975
271.554	56.257
269.512	54.9884
267.469	55.42815
265.426	57.03981
263.381	57.4357
261.337	55.7949
259.292	55.64439
257.245	55.6742
255.198	55.207
253.1517	53.7259
251.103	53.0568
249.054	54.5236
247.0052	55.6144
244.955	54.6861
242.905	53.7016
240.853	53.7064
238.801	54.4862
236.748	54.8109
234.696	55.4639
232.641	55.9612
230.588	55.08033
228.533	53.8294
226.477	53.0423
224.42	53.3469
222.364	53.844
220.306	52.4216
218.2486	52.3512
216.188	51.99609
214.13	51.1575
212.07	49.7028
210.0088	49.5664
207.947	51.2028
205.886	52.2397
203.8231	50.2739
201.7596	48.60844
199.696	47.97612
197.631	49.6885
195.5663	49.8879
193.501	47.9035
191.433	51.2664
189.367	49.7826
187.3	49.6034
185.231	48.70134
183.161	48.4316
181.093	49.5352
179.022	51.652
176.951	50.7871
174.879	50.97546
172.807	50.60582
170.735	49.9129
168.662	47.448
166.586	46.7623
164.512	47.8018
162.4359	49.2802
160.361	49.8012
158.284	50.0693
156.206	49.7561
154.13	48.5481
152.051	47.2569
149.971	46.6783
147.892	47.7694
145.812	48.2102
143.729	48.1947
141.648	47.9601
139.566	46.6575
138.002	49.6767