File: bartels lab/3642 MoS2 on 1012 WG/Raman_5_21_2015_Dominic/C3_R2/python files used/3642_8401x_3256y/3642 8401x 3296y PL 600 T2 D1 100x.txt
1.7708	2157.28
1.77132	2195.69
1.771839	2207.56
1.77236	2217.604
1.77288	2231.35
1.77341	2246.56
1.77393	2263.56
1.77445	2282.95
1.77497	2301.333
1.7755	2320.97
1.77602	2330.02
1.77655	2337.65
1.77707	2329.375
1.777596	2324.66
1.77812	2334.26
1.77865	2345.26
1.77917	2351.01
1.7797	2366.24
1.780226	2389.41
1.780753	2410.96
1.78128	2423.27
1.78181	2423.72
1.78234	2435.4
1.78286	2429.29
1.78339	2442.38
1.78392	2446.408
1.78445	2468.73
1.78498	2490.2
1.78551	2498.707
1.78604	2504.94
1.78657	2517.938
1.7871	2539.92
1.78764	2558.74
1.78817	2564.66
1.788699	2563.3
1.78923	2568.58
1.78976	2593.92
1.7903	2626.74
1.79083	2645.06
1.79136	2668.61
1.791899	2691.6
1.79243	2731.782
1.79297	2760.304
1.7935	2776.12
1.79404	2787.54
1.79458	2815.47
1.79511	2840.81
1.79565	2866.8
1.79618	2896.572
1.79672	2924.38
1.79726	2940.61
1.7978	2945.53
1.79834	2953.6
1.79887	2970.15
1.79941	2998.73
1.79995	3019.73
1.80049	3038.85
1.80103	3059.36
1.80157	3076.08
1.80211	3085.54
1.80265	3094.15
1.8032	3117.7
1.803738	3138.61
1.80428	3143.16
1.80482	3141.105
1.80537	3143.45
1.80591	3177.39
1.80645	3189.1
1.807	3187.26
1.80754	3191.87
1.808085	3204.7
1.80863	3222.66
1.80918	3241.21
1.80972	3270.88
1.81027	3304.83
1.81081	3326.57
1.81136	3338.374
1.81191	3155.56
1.81245	3373.834
1.813	3391.02
1.81355	3435.45
1.8141	3473.08
1.81465	3515.24
1.815197	3561.45
1.81575	3605.1
1.8163	3648.88
1.81685	3686.75
1.8174	3729.55
1.81795	3761.8
1.8185	3783.21
1.81905	3807.76
1.8196	3849.18
1.82016	3916.15
1.82071	3961.38
1.82126	3982.78
1.82182	4012.59
1.822369	4051.43
1.82292	4080.36
1.82348	4088.196
1.82403	4105.97
1.82459	4145.33
1.82514	4175.875
1.8257	4191.64
1.82626	4177.49
1.82681	4182.72
1.82737	4208.26
1.82793	4231.48
1.82849	4245.34
1.82904	4267.66
1.8296	4281.56
1.830161	4298.57
1.83072	4320.65
1.83128	4350.41
1.83184	4398.99
1.8324	4436.02
1.83296	4461.99
1.83352	4495.64
1.83408	4544.28
1.83465	4593.27
1.83521	4621.71
1.83577	4651.72
1.83633	4729.67
1.8369	4742.69
1.83746	4776.73
1.83802	4805.62
1.83859	4844.28
1.83915	4895.93
1.83972	4952.33
1.84028	4982.9
1.84085	5013.32
1.841417	5040.14
1.84198	5066.84
1.84255	5081.67
1.84312	5103.55
1.84369	5115.29
1.844254	5131.54
1.84482	5144.14
1.84539	5132.61
1.84596	5129.03
1.84653	5151.15
1.8471	5183.73
1.84767	5186.76
1.84824	5172
1.84881	5167.34
1.84938	5153.18
1.84996	5160.53
1.85053	5170.9
1.8511	5201.42
1.85167	5228.86
1.85225	5226.07
1.85282	5213.269
1.8534	5209.87
1.85397	5211.87
1.85455	5208.67
1.85512	5193.61
1.8557	5190.85
1.85627	5196.45
1.85685	5209.603
1.85743	5203.8
1.858	5187.15
1.85858	5156.64
1.85916	5139.19
1.85974	5128.63
1.86032	5102.39
1.86089	5054.08
1.86147	5007.52
1.862054	5003.41
1.86263	5019.14
1.86322	5014.45
1.8638	5010.72
1.86438	4984.39
1.86496	4948.55
1.86554	4915.34
1.86612	4893.96
1.86671	4881.86
1.86729	4865.57
1.86787	4856.87
1.86846	4841.08
1.86904	4821.09
1.86963	4800.06
1.870213	4775.93
1.8708	4750.416
1.87138	4725.16
1.87197	4698.52
1.87256	4662.96
1.87315	4637.82
1.87373	4616.57
1.87432	4569.01
1.87491	4506.49
1.8755	4455.28
1.87609	4402.54
1.87668	4361.15
1.87727	4319.28
1.87786	4264.43
1.87845	4198.61
1.87904	4145.89
1.87963	4089.6
1.88022	4025.49
1.88082	3956.12
1.88141	3893.79
1.882	3841.23
1.8826	3781.67
1.88319	3723.96
1.88378	3674.98
1.88438	3634.39
1.88497	3590.56
1.88557	3530.16
1.88616	3467.19
1.88676	3398.77
1.88736	3380.02
1.887955	3356.832
1.88855	3298.86
1.88915	3256.64
1.88975	3209.886
1.89035	3165.085
1.89095	3113.06
1.89155	3065.72
1.89215	3026.46
1.89275	2994.58
1.89335	2975.21
1.89395	2930.53
1.89455	2877.62
1.895152	2836.79
1.89575	2807.87
1.89636	2762.72
1.89696	2711.438
1.89756	2683.45
1.89817	2661.2
1.89877	2626.37
1.899377	2566.61
1.89998	2516.82
1.90059	2487.22
1.90119	2465.4
1.9018	2439.36
1.90241	2396.52
1.90301	2356.22
1.903622	2314.57
1.90423	2274.93
1.90484	2235.58
1.90545	2204.08
1.90606	2177.32
1.90667	2152.13
1.90728	2113.69
1.90789	2062.07
1.9085	2022.92
1.90911	2005.33
1.90972	1993.65
1.91033	1956.2
1.910946	1908.22
1.911559	1865.61
1.91217	1834.293
1.91279	1822.39
1.9134	1804.65
1.91402	1778.17
1.91463	1743.04
1.91525	1702.146
1.91571	1668.71