File: bartels lab/3642 MoS2 on 1012 WG/Raman_5_21_2015_Dominic/C3_R2/python files used/3642_8401x_3256y/Raman1800.txt
650.268	59.7849
648.343	59.54715
646.417	61.8358
644.491	62.8349
642.564	63.8919
640.637	64.1237
638.71	64.3324
636.782	63.3804
634.852	63.4322
632.9231	63.3044
630.992	62.9568
629.0625	62.4107
627.131	63.1125
625.198	63.7149
623.2655	63.2214
621.332	64.7551
619.3988	65.9229
617.465	65.3913
615.528	63.4748
613.594	62.2191
611.656	61.11544
609.721	61.3327
607.783	61.9007
605.844	59.41291
603.9054	62.3925
601.966	64.4732
600.026	64.4323
598.0863	64.1861
596.146	63.9559
594.205	63.9345
592.261	64.111
590.32	64.0557
588.375	63.3656
586.431	61.7133
584.486	60.0093
582.54	59.9888
580.594	60.7698
578.648	62.2159
576.701	63.1981
574.754	62.8204
572.805	60.832
570.857	59.4241
568.906	59.679
566.958	59.6041
565.006	59.8538
563.055	60.76025
561.103	60.2996
559.15	61.6827
557.197	62.6351
555.244	62.21904
553.288	61.5628
551.334	61.5164
549.377	62.30476
547.422	64.8244
545.465	66.5524
543.507	67.2165
541.549	67.2591
539.59	68.129
537.631	70.3764
535.671	75.6997
533.711	80.00882
531.751	81.65934
529.788	89.6276
527.8269	109.919
525.863	154.571
523.899	294.602
521.935	879
519.9696	1085.5
518.004	367.691
516.038	169.472
514.0722	116.08
512.106	90.4848
510.138	79.8728
508.169	75.7749
506.201	71.7025
504.231	69.73954
502.2598	69.2747
500.289	67.6642
498.317	65.3959
496.345	64.2345
494.372	63.7105
492.399	63.9781
490.426	63.4823
488.45	63.6405
486.476	64.1594
484.499	62.6833
482.524	61.4651
480.547	60.4656
478.569	61.091
476.59	61.5391
474.611	59.2561
472.6322	62.5338
470.653	64.761
468.672	63.9169
466.69	61.7476
464.709	61.3421
462.7254	62.4402
460.744	63.4232
458.759	63.7405
456.775	65.0162
454.7894	67.882
452.8038	68.0482
450.818	66.5352
448.831	66.4777
446.842	67.0697
444.8551	66.1725
442.867	64.3918
440.877	64.2366
438.886	66.0409
436.897	66.2544
434.906	64.92514
432.914	63.8715
430.922	63.703
428.929	65.4887
426.935	65.7909
424.94	64.3784
422.946	63.7036
420.949	63.1386
418.954	63.2006
416.957	63.2706
414.961	65.7442
412.962	68.40226
410.964	71.0514
408.964	78.7438
406.965	96.2378
404.9646	120.868
402.962	99.99
400.961	74.3539
398.958	67.5521
396.956	64.7341
394.951	63.1
392.949	61.348
390.944	61.1283
388.938	65.1988
386.932	75.6675
384.925	86.3141
382.918	88.0342
380.909	77.1981
378.901	69.3016
376.893	64.3179
374.882	62.111
372.871	61.42379
370.861	62.1249
368.849	63.1569
366.837	63.1712
364.824	61.8741
362.81	60.09697
360.796	59.6107
358.782	60.3249
356.765	59.9585
354.75	60.2618
352.734	61.30336
350.716	61.5301
348.698	60.9148
346.681	59.2822
344.661	58.4832
342.641	60.2296
340.621	61.9774
338.6	62.7599
336.577	62.3036
334.555	60.3596
332.5332	58.7389
330.509	58.3782
328.486	60.6903
326.46	61.9628
324.434	60.5753
322.41	58.4399
320.383	58.6096
318.356	60.295
316.328	62.7131
314.3	62.1958
312.269	59.46764
310.24	60.3886
308.2103	62.3859
306.178	62.3655
304.146	63.2331
302.115	63.8205
300.081	64.4309
298.048	63.3629
296.013	63.72197
293.979	63.7375
291.943	63.258
289.908	61.8202
287.872	61.0451
285.833	61.6017
283.796	61.044
281.7565	60.60619
279.719	58.56
277.678	56.79134
275.637	56.7634
273.596	58.3116
271.554	56.2863
269.512	55.8803
267.469	56.5459
265.426	57.1757
263.381	56.3982
261.337	54.8856
259.292	55.9216
257.245	57.3126
255.198	57.6902
253.1517	57.2533
251.103	56.714
249.054	56.2805
247.0052	56.033
244.955	55.8853
242.905	56.0531
240.853	55.8239
238.801	56.5068
236.748	57.3959
234.696	58.1105
232.641	58.0514
230.588	58.3938
228.533	56.89481
226.477	55.8184
224.42	55.2532
222.364	54.1885
220.306	53.4769
218.2486	54.5081
216.188	56.75634
214.13	57.5828
212.07	54.3921
210.0088	51.0523
207.947	52.0419
205.886	54.1656
203.8231	55.6814
201.7596	53.7125
199.696	51.1551
197.631	50.45113
195.5663	51.4013
193.501	53.3368
191.433	53.6583
189.367	52.7917
187.3	51.398
185.231	50.9747
183.161	51.5397
181.093	52.7896
179.022	51.9996
176.951	50.4185
174.879	48.8681
172.807	49.9702
170.735	51.742
168.662	50.4915
166.586	50.6194
164.512	51.4532
162.4359	52.4714
160.361	50.4989
158.284	48.416
156.206	48.6825
154.13	49.8387
152.051	50.0525
149.971	49.9453
147.892	49.6543
145.812	49.7345
143.729	48.3446
141.648	49.6798
139.566	53.5594
138.002	57.2332